Composition,
Date Added,2022-04-27 20:00:03.646756
Formula,
Grain Size,
Locality,
Minimum Wavelength,213.0
Sample Name,Hematite
Maximum Wavelength,2976.0
Database of Origin,USGS Spectral Database
Other Information,
References,
Resolution,
Material Class,Oxide
Sample Description,See USGS database for additional info
Sample ID,Hematite_fe2602.9271
Original Sample ID,
Sample Type,None
Viewing Geometry,
Wavelength,Response
213.1,0.050723
221.1,0.051578
229.1,0.051899
236.1,0.050821
242.1,0.050461
248.1,0.050524
253.6,0.05004
258.6,0.050578
263.6,0.051034
268.6,0.050683
277.1,0.046431
281.1,0.046306
285.1,0.046409
289.1,0.046092
293.1,0.045305
297.1,0.046179
301.1,0.049357
305.1,0.048058
309.1,0.049491
313.1,0.04885
317.1,0.050044
321.1,0.04984
325.1,0.04976
329.1,0.048946
333.1,0.048891
337.1,0.047762
341.1,0.047426
345.1,0.047252
349.1,0.047292
353.1,0.047749
357.1,0.048334
360.6,0.049208
363.6,0.049725
366.6,0.050941
369.6,0.051452
372.6,0.052409
375.6,0.053173
378.6,0.054683
381.1,0.054179
383.1,0.05503
385.1,0.055499
387.1,0.055798
389.1,0.056751
391.1,0.056686
393.1,0.057367
395.1,0.057378
397.1,0.057728
399.1,0.05791
401.1,0.058961
403.1,0.058704
405.1,0.058923
407.1,0.059047
409.1,0.059456
411.1,0.060631
412.8,0.059899
415.8,0.059847
418.8,0.060937
421.8,0.060438
424.8,0.06081
427.8,0.06075
430.8,0.061158
433.8,0.060545
436.8,0.061405
439.8,0.060645
442.8,0.06083
445.8,0.060184
448.8,0.059902
451.3,0.06022
453.3,0.059718
455.3,0.060233
457.3,0.058737
459.3,0.05907
461.3,0.058722
463.3,0.059671
465.3,0.058598
467.3,0.0586
469.3,0.058311
471.3,0.058356
473.3,0.058211
475.3,0.057937
477.3,0.058473
479.3,0.057953
481.3,0.05758
483.3,0.057741
485.3,0.057946
487.3,0.058207
489.3,0.057468
491.3,0.057237
493.3,0.05752
495.3,0.057083
497.3,0.057419
499.3,0.057569
501.3,0.057066
503.3,0.057642
505.3,0.057441
507.3,0.05689
509.3,0.057647
511.3,0.056927
513.3,0.057879
515.3,0.057251
517.3,0.056382
519.3,0.057372
521.3,0.057401
523.3,0.058678
525.3,0.057472
527.3,0.057826
529.3,0.058109
531.3,0.058113
533.3,0.05791
535.3,0.057953
537.3,0.059899
539.3,0.059316
541.3,0.060444
543.3,0.059467
545.3,0.057952
547.3,0.059729
549.3,0.058899
551.3,0.059662
553.3,0.059162
555.3,0.060769
557.3,0.059908
559.3,0.060052
561.3,0.060604
563.3,0.060794
565.3,0.060887
567.3,0.060581
569.3,0.061711
571.3,0.061419
573.3,0.06288
575.3,0.061699
577.3,0.063434
579.3,0.063841
581.3,0.064824
583.3,0.065369
585.3,0.066403
587.3,0.06746
589.3,0.068407
591.3,0.069909
593.3,0.07056
595.3,0.071805
597.3,0.072927
599.3,0.074165
601.1,0.074773
602.7,0.076184
604.3,0.076635
605.9,0.078229
607.5,0.078231
609.1,0.079438
610.7,0.079974
612.3,0.080051
613.9,0.081032
615.5,0.081172
617.1,0.08205
618.7,0.082047
620.3,0.082765
621.9,0.083253
623.5,0.083741
625.1,0.083683
626.7,0.084265
628.3,0.084551
629.9,0.085881
631.7,0.085557
633.7,0.085329
635.7,0.086581
637.7,0.086575
639.7,0.0874
641.7,0.087597
643.7,0.088292
645.7,0.088401
647.7,0.089218
649.7,0.089537
651.7,0.090453
653.7,0.090838
655.7,0.091059
657.7,0.091464
659.7,0.091864
661.7,0.092675
663.7,0.093951
665.7,0.094101
667.7,0.095078
670.2,0.095685
673.2,0.097425
676.2,0.098487
679.2,0.099832
682.2,0.101706
685.2,0.103151
688.2,0.104388
691.2,0.106108
694.2,0.108159
697.2,0.10976
700.2,0.112117
702.0,0.113354
704.0,0.114627
706.0,0.115869
708.0,0.118068
710.0,0.118946
712.0,0.120821
714.0,0.122025
716.0,0.123434
718.0,0.124603
720.0,0.126333
722.0,0.128164
724.0,0.128906
726.0,0.131475
728.0,0.131325
730.0,0.132678
732.0,0.134473
734.0,0.134067
736.0,0.135715
738.0,0.135494
740.0,0.136497
742.0,0.137213
744.0,0.136668
746.0,0.138284
748.0,0.136993
750.5,0.137293
753.5,0.137516
756.5,0.136448
759.5,0.136174
762.5,0.134915
765.5,0.134303
768.5,0.132771
771.5,0.131677
774.5,0.130145
777.5,0.129307
781.0,0.127207
785.0,0.125242
789.0,0.123435
793.0,0.121045
797.0,0.120427
801.5,0.11779
806.5,0.115513
811.5,0.114053
816.5,0.112403
822.0,0.111745
828.0,0.109178
835.0,0.108853
843.0,0.106837
851.0,0.107226
859.0,0.106872
871.0,0.104291
883.0,0.107808
894.0,0.110775
904.0,0.112047
914.0,0.114789
924.0,0.118445
933.0,0.126374
941.0,0.130423
949.0,0.135175
957.0,0.14231
964.0,0.15204
970.0,0.158253
976.0,0.164883
982.0,0.170705
988.0,0.179611
994.0,0.187764
1000.0,0.194676
1006.0,0.202172
1012.0,0.209854
1018.0,0.21774
1023.5,0.224638
1028.5,0.230889
1033.5,0.235958
1038.5,0.239324
1043.5,0.245818
1048.5,0.249134
1053.5,0.254328
1058.5,0.25857
1063.5,0.263144
1068.5,0.265418
1073.5,0.27137
1078.5,0.274593
1083.5,0.277864
1088.5,0.282105
1093.5,0.286292
1098.5,0.290246
1103.5,0.294802
1108.5,0.297981
1113.5,0.300244
1118.5,0.304913
1123.5,0.309601
1128.5,0.312875
1133.5,0.31578
1138.5,0.319614
1143.5,0.322547
1148.5,0.326618
1153.5,0.328699
1158.5,0.331697
1163.5,0.333487
1168.5,0.336123
1173.5,0.338259
1178.5,0.34018
1183.5,0.342979
1188.5,0.343802
1193.5,0.346693
1198.5,0.346275
1203.5,0.347083
1208.5,0.347097
1213.5,0.349693
1218.5,0.34827
1223.5,0.349025
1228.5,0.348
1233.5,0.349779
1238.5,0.350662
1243.5,0.350934
1248.5,0.350806
1253.5,0.350589
1258.5,0.351216
1263.5,0.350833
1268.5,0.351245
1273.5,0.350475
1278.5,0.350991
1283.5,0.350752
1288.5,0.349607
1293.5,0.350526
1298.5,0.350468
1303.5,0.349703
1308.5,0.350647
1313.5,0.350494
1318.5,0.348903
1323.5,0.350606
1328.5,0.349803
1333.5,0.349967
1338.5,0.348826
1343.5,0.349093
1348.5,0.347536
1353.5,0.348699
1358.5,0.347464
1363.5,0.349386
1368.5,0.347706
1373.5,0.349288
1378.5,0.348935
1383.5,0.348352
1388.5,0.348282
1393.5,0.347782
1398.5,0.34776
1403.5,0.348626
1408.5,0.347427
1413.5,0.346652
1418.5,0.347679
1423.5,0.348986
1428.5,0.348576
1433.5,0.348601
1438.5,0.348561
1443.5,0.34866
1448.5,0.350127
1453.5,0.349286
1458.5,0.349324
1463.5,0.350858
1468.5,0.347812
1473.5,0.349701
1478.5,0.348749
1483.5,0.347929
1488.5,0.348363
1493.5,0.349287
1498.5,0.348326
1503.5,0.348825
1508.5,0.34841
1513.5,0.350864
1518.5,0.34994
1523.5,0.35048
1528.5,0.352596
1534.0,0.349362
1540.0,0.349311
1546.0,0.350505
1552.0,0.350846
1558.0,0.350941
1564.0,0.352277
1570.5,0.350834
1577.5,0.351379
1584.5,0.350751
1591.5,0.352085
1598.5,0.351112
1605.5,0.352644
1612.5,0.350887
1619.5,0.352178
1626.5,0.352354
1633.5,0.352259
1640.5,0.353239
1647.5,0.354649
1654.5,0.353314
1661.5,0.353551
1668.5,0.353368
1676.0,0.35358
1684.0,0.353118
1692.0,0.353693
1700.0,0.359868
1708.0,0.357065
1716.0,0.357998
1724.0,0.355176
1732.0,0.355467
1740.0,0.358502
1748.0,0.356178
1756.0,0.360564
1764.0,0.358359
1772.0,0.358198
1780.0,0.35918
1788.0,0.361567
1796.0,0.362359
1805.0,0.3602
1815.0,0.360904
1825.0,0.359473
1835.0,0.362368
1845.0,0.362458
1855.0,0.365112
1865.0,0.362375
1875.0,0.364624
1885.0,0.363209
1895.0,0.364937
1905.0,0.365385
1915.0,0.365961
1925.0,0.366164
1935.0,0.367334
1945.0,0.368188
1955.0,0.369468
1965.0,0.369343
1975.0,0.371986
1985.0,0.371789
1995.0,0.374339
2005.0,0.374483
2015.0,0.375565
2025.0,0.374664
2035.0,0.377964
2045.0,0.377275
2055.0,0.378932
2065.0,0.38052
2075.0,0.380841
2085.0,0.38229
2095.0,0.381673
2105.0,0.38394
2115.0,0.385977
2125.0,0.384448
2135.0,0.387023
2145.0,0.388592
2155.0,0.38924
2165.0,0.386992
2175.0,0.386367
2185.0,0.387724
2195.0,0.387431
2205.0,0.388564
2215.0,0.386867
2225.0,0.388812
2235.0,0.389353
2245.0,0.388844
2255.0,0.390286
2265.0,0.392667
2275.0,0.389604
2285.0,0.396981
2295.0,0.392042
2305.0,0.398103
2315.0,0.396283
2325.0,0.398166
2335.0,0.398209
2345.0,0.398037
2355.0,0.398833
2365.0,0.39943
2375.0,0.400244
2386.0,0.403315
2400.0,0.404598
2418.0,0.403668
2440.0,0.405195
2466.0,0.407365
2496.0,0.409008
2528.0,0.410142
2560.0,0.410629
2592.0,0.411345
2624.0,0.414421
2656.0,0.411596
2688.0,0.395314
2720.0,0.368643
2752.0,0.330179
2784.0,0.330175
2816.0,0.349656
2848.0,0.338455
2880.0,0.347385
2912.0,0.350346
2944.0,0.348135
2976.0,0.358903