Composition,
Date Added,2022-04-27 20:01:21.453966
Formula,
Grain Size,
Locality,
Minimum Wavelength,1380.0
Sample Name,Montmorillonite
Maximum Wavelength,24924.0
Database of Origin,USGS Spectral Database
Other Information,
References,
Resolution,
Material Class,Phyllosilicate
Sample Description,See USGS database for additional info
Sample ID,Montmorillonite_cm20.14338
Original Sample ID,
Sample Type,None
Viewing Geometry,
Wavelength,Response
1379.5,0.553246
1379.87,0.550222
1380.23,0.547252
1380.6,0.545289
1380.97,0.544281
1381.34,0.542477
1381.7,0.540143
1382.07,0.537703
1382.44,0.535316
1382.81,0.533883
1383.18,0.532239
1383.55,0.529799
1383.92,0.528207
1384.29,0.526934
1384.66,0.524494
1385.03,0.522531
1385.4,0.520621
1385.77,0.518499
1386.14,0.516695
1386.51,0.515475
1386.88,0.513884
1387.25,0.511762
1387.62,0.509428
1387.99,0.507518
1388.36,0.506192
1388.74,0.504229
1389.11,0.502372
1389.48,0.500038
1389.85,0.498394
1390.23,0.496166
1390.6,0.494044
1390.97,0.491763
1391.35,0.489906
1391.72,0.487306
1392.09,0.484017
1392.47,0.48163
1392.84,0.479774
1393.21,0.477333
1393.59,0.474946
1393.96,0.472612
1394.34,0.469641
1394.71,0.466724
1395.09,0.46423
1395.46,0.461525
1395.84,0.458342
1396.22,0.455265
1396.59,0.453461
1396.97,0.451764
1397.35,0.449058
1397.72,0.446194
1398.1,0.443594
1398.48,0.441154
1398.85,0.438714
1399.23,0.436327
1399.61,0.433939
1399.99,0.430863
1400.37,0.428369
1400.74,0.426884
1401.12,0.424762
1401.5,0.422481
1401.88,0.420571
1402.26,0.418131
1402.64,0.41585
1403.02,0.413834
1403.4,0.411712
1403.78,0.409908
1404.16,0.407999
1404.54,0.405664
1404.92,0.403648
1405.3,0.401898
1405.68,0.400359
1406.06,0.398874
1406.44,0.396858
1406.83,0.395055
1407.21,0.393675
1407.59,0.39219
1407.97,0.390864
1408.35,0.389538
1408.74,0.387681
1409.12,0.386036
1409.5,0.385188
1409.89,0.384445
1410.27,0.383437
1410.65,0.382694
1411.04,0.381952
1411.42,0.381474
1411.81,0.381156
1412.19,0.380625
1412.58,0.380095
1412.96,0.379511
1413.35,0.379511
1413.73,0.379299
1414.12,0.379564
1414.5,0.380413
1414.89,0.381209
1415.28,0.381527
1415.66,0.381898
1416.05,0.382376
1416.44,0.383119
1416.82,0.383861
1417.21,0.384975
1417.6,0.385771
1417.98,0.386461
1418.37,0.387416
1418.76,0.388264
1419.15,0.38906
1419.54,0.390174
1419.93,0.391129
1420.32,0.392031
1420.71,0.393251
1421.09,0.394418
1421.48,0.395532
1421.88,0.397123
1422.27,0.398609
1422.66,0.399935
1423.05,0.401155
1423.44,0.402588
1423.83,0.40402
1424.22,0.40524
1424.61,0.406354
1425.0,0.40768
1425.39,0.409059
1425.78,0.410598
1426.18,0.411977
1426.57,0.412932
1426.96,0.414311
1427.36,0.415691
1427.75,0.417017
1428.14,0.418396
1428.54,0.420147
1428.93,0.421579
1429.32,0.422216
1429.72,0.423383
1430.11,0.424762
1430.51,0.426194
1430.9,0.427414
1431.3,0.428688
1431.69,0.429749
1432.09,0.430916
1432.48,0.43256
1432.88,0.433621
1433.28,0.434311
1433.67,0.435372
1434.07,0.436539
1434.46,0.437706
1434.86,0.439138
1435.26,0.440305
1435.66,0.441048
1436.05,0.441738
1436.45,0.443223
1436.85,0.44439
1437.25,0.444708
1437.65,0.445345
1438.05,0.446247
1438.44,0.446989
1438.84,0.44805
1439.24,0.449005
1439.64,0.450119
1440.04,0.451021
1440.44,0.451658
1440.84,0.451976
1441.24,0.452719
1441.65,0.453461
1442.05,0.454416
1442.45,0.455318
1442.85,0.455849
1443.25,0.456326
1443.65,0.456697
1444.05,0.457334
1444.46,0.45797
1444.86,0.458607
1445.26,0.45866
1445.67,0.458925
1446.07,0.459403
1446.47,0.45988
1446.88,0.460358
1447.28,0.460941
1447.68,0.461153
1448.09,0.461737
1448.49,0.46232
1448.9,0.462374
1449.3,0.46232
1449.71,0.462427
1450.11,0.462533
1450.52,0.462586
1450.93,0.462957
1451.33,0.463381
1451.74,0.4637
1452.14,0.463541
1452.55,0.463381
1452.96,0.463488
1453.36,0.463222
1453.77,0.463275
1454.18,0.463169
1454.59,0.463063
1455.0,0.463169
1455.41,0.46301
1455.81,0.462745
1456.22,0.462957
1456.63,0.463063
1457.04,0.462586
1457.45,0.46232
1457.86,0.462161
1458.27,0.46179
1458.68,0.461631
1459.09,0.461737
1459.5,0.461313
1459.91,0.460888
1460.32,0.460729
1460.74,0.460729
1461.15,0.460252
1461.56,0.460199
1461.97,0.460305
1462.39,0.460411
1462.8,0.460092
1463.21,0.459933
1463.62,0.459774
1464.04,0.459615
1464.45,0.459562
1464.86,0.459509
1465.28,0.459827
1465.69,0.460039
1466.11,0.459774
1466.52,0.45988
1466.94,0.46057
1467.35,0.4611
1467.77,0.461313
1468.18,0.461472
1468.6,0.462002
1469.02,0.462904
1469.43,0.463488
1469.85,0.463965
1470.27,0.464602
1470.68,0.465132
1471.1,0.465503
1471.52,0.466299
1471.94,0.466936
1472.35,0.467625
1472.77,0.468315
1473.19,0.468792
1473.61,0.469429
1474.03,0.469959
1474.45,0.470649
1474.87,0.471339
1475.29,0.472241
1475.71,0.47293
1476.13,0.473514
1476.55,0.474044
1476.97,0.474628
1477.39,0.475264
1477.81,0.475742
1478.23,0.476272
1478.65,0.476856
1479.07,0.477386
1479.5,0.478023
1479.92,0.478659
1480.34,0.479031
1480.76,0.479137
1481.19,0.479667
1481.61,0.480304
1482.03,0.480835
1482.46,0.481524
1482.88,0.481896
1483.31,0.482267
1483.73,0.483116
1484.16,0.484124
1484.58,0.484442
1485.01,0.484919
1485.43,0.485078
1485.86,0.485291
1486.28,0.485768
1486.71,0.486352
1487.14,0.48667
1487.56,0.487253
1487.99,0.487837
1488.42,0.488367
1488.84,0.488633
1489.27,0.488951
1489.7,0.489428
1490.13,0.490118
1490.56,0.490383
1490.98,0.490755
1491.41,0.490967
1491.84,0.491338
1492.27,0.491603
1492.7,0.492081
1493.13,0.492558
1493.56,0.493089
1493.99,0.493354
1494.42,0.493885
1494.85,0.49415
1495.29,0.494468
1495.72,0.494839
1496.15,0.495423
1496.58,0.496006
1497.01,0.496325
1497.44,0.496219
1497.88,0.496749
1498.31,0.497174
1498.74,0.497651
1499.18,0.497863
1499.61,0.498128
1500.04,0.4985
1500.48,0.498871
1500.91,0.499508
1501.35,0.499561
1501.78,0.499773
1502.22,0.50025
1502.65,0.500622
1503.09,0.500993
1503.53,0.501258
1503.96,0.501311
1504.4,0.501736
1504.83,0.502054
1505.27,0.502266
1505.71,0.502425
1506.15,0.502956
1506.58,0.503274
1507.02,0.503009
1507.46,0.503062
1507.9,0.503805
1508.34,0.504282
1508.78,0.504653
1509.21,0.504919
1509.66,0.505237
1510.09,0.505608
1510.53,0.506086
1510.97,0.506404
1511.42,0.506457
1511.86,0.506192
1512.3,0.506563
1512.74,0.507147
1513.18,0.507518
1513.62,0.507783
1514.06,0.507942
1514.51,0.508102
1514.95,0.508685
1515.39,0.509057
1515.83,0.50911
1516.28,0.509375
1516.72,0.50964
1517.16,0.509693
1517.61,0.509958
1518.05,0.51033
1518.5,0.510701
1518.94,0.510913
1519.39,0.511178
1519.83,0.511444
1520.28,0.511603
1520.73,0.511497
1521.17,0.511815
1521.62,0.512133
1522.07,0.512346
1522.51,0.512717
1522.96,0.512876
1523.41,0.513088
1523.85,0.513247
1524.3,0.513513
1524.75,0.513937
1525.2,0.514202
1525.65,0.514202
1526.1,0.514521
1526.55,0.514733
1527.0,0.515051
1527.45,0.515316
1527.9,0.515581
1528.35,0.515847
1528.8,0.515953
1529.25,0.516112
1529.7,0.516483
1530.15,0.516589
1530.6,0.516802
1531.05,0.517226
1531.51,0.517491
1531.96,0.51765
1532.41,0.517916
1532.87,0.51834
1533.32,0.518499
1533.77,0.518393
1534.23,0.518499
1534.68,0.518977
1535.14,0.519189
1535.59,0.519401
1536.05,0.519985
1536.5,0.520356
1536.96,0.520621
1537.41,0.52078
1537.87,0.520886
1538.32,0.521417
1538.78,0.521523
1539.24,0.521788
1539.7,0.522266
1540.15,0.522372
1540.61,0.522531
1541.07,0.52269
1541.53,0.522902
1541.98,0.523061
1542.44,0.523327
1542.9,0.523698
1543.36,0.524175
1543.82,0.524441
1544.28,0.524547
1544.74,0.524971
1545.2,0.525236
1545.66,0.525396
1546.12,0.525449
1546.59,0.525449
1547.05,0.525767
1547.51,0.526244
1547.97,0.526457
1548.43,0.526563
1548.9,0.526987
1549.36,0.527199
1549.82,0.527571
1550.29,0.528048
1550.75,0.528472
1551.21,0.528791
1551.68,0.52895
1552.14,0.529109
1552.61,0.529215
1553.07,0.529321
1553.54,0.529533
1554.0,0.529958
1554.47,0.530329
1554.93,0.530647
1555.4,0.530807
1555.87,0.530966
1556.34,0.531284
1556.8,0.531655
1557.27,0.531921
1557.74,0.532027
1558.21,0.532239
1558.68,0.532451
1559.14,0.53261
1559.61,0.532769
1560.08,0.533194
1560.55,0.533512
1561.02,0.5333
1561.49,0.533618
1561.96,0.533989
1562.43,0.534255
1562.9,0.534626
1563.38,0.534891
1563.85,0.534997
1564.32,0.535263
1564.79,0.535475
1565.26,0.535581
1565.74,0.535846
1566.21,0.536005
1566.68,0.536111
1567.16,0.536377
1567.63,0.536536
1568.1,0.537013
1568.58,0.537119
1569.05,0.537278
1569.53,0.537438
1570.0,0.537703
1570.48,0.538127
1570.96,0.538286
1571.43,0.538499
1571.91,0.538817
1572.39,0.53887
1572.86,0.538976
1573.34,0.539294
1573.82,0.539453
1574.3,0.539453
1574.77,0.539772
1575.25,0.540249
1575.73,0.540355
1576.21,0.540727
1576.69,0.540727
1577.17,0.540886
1577.65,0.541151
1578.13,0.541151
1578.61,0.541257
1579.09,0.541522
1579.57,0.541788
1580.05,0.541841
1580.54,0.542159
1581.02,0.542371
1581.5,0.542477
1581.98,0.542689
1582.47,0.542796
1582.95,0.543326
1583.43,0.543485
1583.92,0.543379
1584.4,0.543326
1584.88,0.543591
1585.37,0.544069
1585.85,0.544281
1586.34,0.544175
1586.82,0.544546
1587.31,0.544918
1587.8,0.544971
1588.28,0.544864
1588.77,0.545077
1589.26,0.545607
1589.74,0.545554
1590.23,0.54566
1590.72,0.545978
1591.21,0.546244
1591.7,0.546456
1592.19,0.546774
1592.67,0.54688
1593.16,0.54688
1593.65,0.54688
1594.14,0.547146
1594.63,0.547517
1595.12,0.547835
1595.61,0.547994
1596.11,0.54826
1596.6,0.548366
1597.09,0.548419
1597.58,0.548684
1598.08,0.549002
1598.57,0.549002
1599.06,0.549214
1599.55,0.54948
1600.05,0.549745
1600.54,0.549957
1601.04,0.550222
1601.53,0.550541
1602.03,0.550859
1602.52,0.551018
1603.02,0.551124
1603.51,0.551389
1604.01,0.551708
1604.5,0.551973
1605.0,0.55245
1605.5,0.552716
1606.0,0.552557
1606.49,0.552557
1606.99,0.552822
1607.49,0.552981
1607.99,0.553352
1608.49,0.553883
1608.99,0.553989
1609.49,0.554042
1609.99,0.554148
1610.49,0.554307
1610.99,0.554625
1611.49,0.554625
1611.99,0.554785
1612.49,0.554891
1612.99,0.555209
1613.49,0.55558
1614.0,0.555686
1614.5,0.555793
1615.0,0.555899
1615.51,0.556164
1616.01,0.556429
1616.51,0.556747
1617.02,0.557172
1617.52,0.557172
1618.03,0.557384
1618.53,0.557649
1619.04,0.557967
1619.54,0.557808
1620.05,0.558021
1620.55,0.55818
1621.06,0.558551
1621.57,0.558922
1622.08,0.559029
1622.58,0.559294
1623.09,0.559506
1623.6,0.559665
1624.11,0.55993
1624.62,0.55993
1625.13,0.560143
1625.64,0.560302
1626.15,0.560567
1626.66,0.560885
1627.17,0.56115
1627.68,0.56115
1628.19,0.56115
1628.7,0.561097
1629.21,0.561416
1629.72,0.56184
1630.24,0.561946
1630.75,0.561999
1631.26,0.562371
1631.78,0.562583
1632.29,0.562583
1632.8,0.562795
1633.32,0.562795
1633.83,0.562848
1634.35,0.563325
1634.86,0.563485
1635.38,0.563538
1635.9,0.563962
1636.41,0.56444
1636.93,0.56428
1637.45,0.56444
1637.96,0.564705
1638.48,0.564811
1639.0,0.564546
1639.52,0.564333
1640.04,0.564652
1640.56,0.565076
1641.08,0.565235
1641.59,0.565235
1642.11,0.56566
1642.63,0.565925
1643.16,0.566084
1643.68,0.566243
1644.2,0.566296
1644.72,0.566455
1645.24,0.566561
1645.76,0.566508
1646.29,0.566615
1646.81,0.566774
1647.33,0.566986
1647.86,0.56688
1648.38,0.567145
1648.9,0.56741
1649.43,0.567516
1649.95,0.567463
1650.48,0.567304
1651.0,0.567622
1651.53,0.567729
1652.06,0.567675
1652.58,0.567569
1653.11,0.567888
1653.64,0.5681
1654.17,0.568206
1654.69,0.568524
1655.22,0.568683
1655.75,0.568577
1656.28,0.568524
1656.81,0.568683
1657.34,0.568949
1657.87,0.569161
1658.4,0.569426
1658.93,0.569638
1659.46,0.569532
1659.99,0.569267
1660.52,0.569426
1661.05,0.569744
1661.59,0.57001
1662.12,0.570063
1662.65,0.570222
1663.19,0.570116
1663.72,0.570222
1664.26,0.570381
1664.79,0.570381
1665.32,0.570487
1665.86,0.570965
1666.39,0.571389
1666.93,0.571336
1667.47,0.571124
1668.0,0.57123
1668.54,0.571442
1669.08,0.57176
1669.61,0.571866
1670.15,0.571601
1670.69,0.571601
1671.23,0.571919
1671.77,0.572344
1672.31,0.57245
1672.85,0.57245
1673.39,0.57245
1673.93,0.572662
1674.47,0.573086
1675.01,0.573033
1675.55,0.572874
1676.09,0.573033
1676.64,0.573299
1677.18,0.573299
1677.72,0.573352
1678.26,0.573564
1678.81,0.573829
1679.35,0.574041
1679.89,0.573988
1680.44,0.574147
1680.98,0.574094
1681.53,0.574094
1682.07,0.574147
1682.62,0.574253
1683.17,0.574307
1683.71,0.57436
1684.26,0.57436
1684.81,0.574572
1685.36,0.574837
1685.9,0.575049
1686.45,0.575102
1687.0,0.575208
1687.55,0.575368
1688.1,0.575527
1688.65,0.575527
1689.2,0.575792
1689.75,0.575792
1690.3,0.575739
1690.85,0.576004
1691.41,0.576163
1691.96,0.576216
1692.51,0.576216
1693.06,0.576428
1693.61,0.576269
1694.17,0.57611
1694.72,0.576269
1695.28,0.576322
1695.83,0.576269
1696.39,0.576322
1696.94,0.576694
1697.5,0.5768
1698.05,0.576588
1698.61,0.576535
1699.17,0.576641
1699.72,0.576747
1700.28,0.5768
1700.84,0.576906
1701.4,0.576853
1701.95,0.576747
1702.51,0.576853
1703.07,0.576906
1703.63,0.576853
1704.19,0.5768
1704.75,0.576694
1705.31,0.576747
1705.88,0.576853
1706.44,0.5768
1707.0,0.576588
1707.56,0.576535
1708.12,0.576641
1708.69,0.576747
1709.25,0.576588
1709.81,0.576375
1710.38,0.576428
1710.94,0.576375
1711.51,0.576428
1712.07,0.576482
1712.64,0.576535
1713.2,0.576428
1713.77,0.576216
1714.34,0.576322
1714.9,0.576163
1715.47,0.575792
1716.04,0.575686
1716.61,0.575739
1717.18,0.575792
1717.74,0.575686
1718.31,0.57558
1718.88,0.575527
1719.45,0.575527
1720.02,0.57558
1720.59,0.575368
1721.17,0.575049
1721.74,0.574943
1722.31,0.574943
1722.88,0.574784
1723.45,0.574731
1724.03,0.574837
1724.6,0.57489
1725.18,0.574837
1725.75,0.574731
1726.33,0.574572
1726.9,0.574413
1727.48,0.57436
1728.05,0.574253
1728.63,0.574147
1729.2,0.574094
1729.78,0.573988
1730.36,0.57367
1730.94,0.573511
1731.51,0.573829
1732.09,0.573935
1732.67,0.573776
1733.25,0.573617
1733.83,0.573564
1734.41,0.573458
1734.99,0.573299
1735.57,0.573352
1736.15,0.573139
1736.73,0.573033
1737.32,0.572874
1737.9,0.572821
1738.48,0.572821
1739.07,0.572768
1739.65,0.572768
1740.23,0.572821
1740.82,0.572821
1741.4,0.572662
1741.99,0.572609
1742.57,0.572609
1743.16,0.572556
1743.74,0.57245
1744.33,0.572291
1744.92,0.572397
1745.51,0.572291
1746.09,0.572078
1746.68,0.572025
1747.27,0.57176
1747.86,0.57176
1748.45,0.571919
1749.04,0.571866
1749.63,0.571813
1750.22,0.571654
1750.81,0.571707
1751.4,0.571707
1751.99,0.571389
1752.59,0.571336
1753.18,0.571283
1753.77,0.571283
1754.37,0.571283
1754.96,0.571389
1755.56,0.571336
1756.15,0.571124
1756.74,0.570965
1757.34,0.570911
1757.94,0.570965
1758.53,0.570752
1759.13,0.570752
1759.73,0.570805
1760.32,0.570858
1760.92,0.570593
1761.52,0.570434
1762.12,0.570434
1762.72,0.570434
1763.32,0.570169
1763.92,0.570275
1764.52,0.570169
1765.12,0.569957
1765.72,0.569957
1766.32,0.56985
1766.92,0.569585
1767.53,0.569426
1768.13,0.569214
1768.73,0.569002
1769.34,0.569161
1769.94,0.569373
1770.55,0.569161
1771.15,0.569002
1771.76,0.568789
1772.36,0.568524
1772.97,0.568524
1773.57,0.568683
1774.18,0.568471
1774.79,0.568047
1775.4,0.567782
1776.0,0.567675
1776.61,0.567569
1777.22,0.567304
1777.83,0.567198
1778.44,0.567039
1779.05,0.566933
1779.66,0.56688
1780.27,0.566508
1780.88,0.566137
1781.5,0.566243
1782.11,0.566137
1782.72,0.565978
1783.33,0.56566
1783.95,0.565394
1784.56,0.5655
1785.18,0.565553
1785.79,0.565235
1786.41,0.564811
1787.02,0.564493
1787.64,0.56428
1788.26,0.564121
1788.87,0.564068
1789.49,0.563909
1790.11,0.563697
1790.73,0.563325
1791.35,0.563166
1791.96,0.563113
1792.58,0.563007
1793.21,0.562848
1793.83,0.56253
1794.45,0.562264
1795.07,0.562158
1795.69,0.561999
1796.31,0.561999
1796.93,0.561893
1797.56,0.561628
1798.18,0.561469
1798.8,0.561363
1799.43,0.56115
1800.05,0.560832
1800.68,0.560938
1801.3,0.560885
1801.93,0.560567
1802.56,0.560302
1803.18,0.560196
1803.81,0.560196
1804.44,0.560249
1805.07,0.560196
1805.7,0.55993
1806.33,0.5594
1806.95,0.559453
1807.58,0.559506
1808.22,0.559241
1808.85,0.559082
1809.48,0.559188
1810.11,0.559082
1810.74,0.558604
1811.38,0.55871
1812.01,0.558763
1812.64,0.558392
1813.28,0.55818
1813.91,0.558233
1814.55,0.558339
1815.18,0.558074
1815.82,0.558074
1816.45,0.557967
1817.09,0.557808
1817.73,0.557808
1818.36,0.557808
1819.0,0.557702
1819.64,0.557278
1820.28,0.55696
1820.92,0.557066
1821.56,0.557013
1822.2,0.557119
1822.84,0.557119
1823.48,0.557225
1824.12,0.557225
1824.76,0.557119
1825.41,0.556376
1826.05,0.555793
1826.69,0.556429
1827.34,0.556535
1827.98,0.556164
1828.63,0.556005
1829.27,0.555846
1829.92,0.555633
1830.56,0.554891
1831.21,0.554732
1831.86,0.555209
1832.5,0.555156
1833.15,0.555156
1833.8,0.554944
1834.45,0.554148
1835.1,0.553564
1835.75,0.553087
1836.4,0.553087
1837.05,0.552981
1837.7,0.552716
1838.35,0.553405
1839.01,0.552716
1839.66,0.551761
1840.31,0.551973
1840.96,0.551708
1841.62,0.550753
1842.27,0.550859
1842.93,0.551018
1843.58,0.550912
1844.24,0.550753
1844.9,0.550541
1845.55,0.55001
1846.21,0.548949
1846.87,0.547888
1847.53,0.547835
1848.18,0.547888
1848.84,0.5481
1849.5,0.547782
1850.16,0.547464
1850.82,0.547092
1851.48,0.546668
1852.14,0.545925
1852.81,0.545024
1853.47,0.54375
1854.13,0.543697
1854.8,0.543804
1855.46,0.542902
1856.12,0.541575
1856.79,0.540833
1857.45,0.540568
1858.12,0.539878
1858.79,0.538393
1859.45,0.536695
1860.12,0.536164
1860.79,0.53574
1861.46,0.53452
1862.12,0.533247
1862.79,0.53208
1863.46,0.530541
1864.13,0.529056
1864.8,0.52773
1865.48,0.52635
1866.15,0.524494
1866.82,0.522319
1867.49,0.519931
1868.16,0.518393
1868.84,0.516589
1869.51,0.514255
1870.19,0.511603
1870.86,0.509003
1871.54,0.507306
1872.21,0.504282
1872.89,0.501205
1873.56,0.49903
1874.24,0.496431
1874.92,0.493142
1875.6,0.4898
1876.28,0.48598
1876.96,0.482267
1877.64,0.47919
1878.32,0.47537
1879.0,0.471233
1879.68,0.467042
1880.36,0.46248
1881.04,0.458077
1881.73,0.453567
1882.41,0.448634
1883.09,0.443594
1883.78,0.438342
1884.46,0.43325
1885.15,0.427945
1885.83,0.422322
1886.52,0.416433
1887.21,0.410651
1887.89,0.404497
1888.58,0.398291
1889.27,0.391713
1889.96,0.384922
1890.65,0.378344
1891.34,0.371607
1892.03,0.364711
1892.72,0.357655
1893.41,0.350653
1894.1,0.34365
1894.79,0.336754
1895.49,0.329911
1896.18,0.32312
1896.87,0.316489
1897.57,0.310389
1898.26,0.304765
1898.96,0.299195
1899.65,0.294474
1900.35,0.290708
1901.05,0.287153
1901.74,0.283705
1902.44,0.280734
1903.14,0.278878
1903.84,0.277711
1904.54,0.276543
1905.24,0.275907
1905.94,0.275854
1906.64,0.276013
1907.34,0.277074
1908.04,0.278241
1908.75,0.27962
1909.45,0.281318
1910.15,0.283493
1910.86,0.285827
1911.56,0.288373
1912.27,0.291185
1912.97,0.293891
1913.68,0.297126
1914.39,0.300469
1915.09,0.303705
1915.8,0.3071
1916.51,0.310389
1917.22,0.313837
1917.93,0.317232
1918.64,0.320468
1919.35,0.323598
1920.06,0.326781
1920.77,0.330229
1921.48,0.333836
1922.19,0.337231
1922.91,0.340308
1923.62,0.343226
1924.33,0.34625
1925.05,0.349486
1925.76,0.352244
1926.48,0.35479
1927.19,0.357549
1927.91,0.359777
1928.63,0.362217
1929.35,0.364764
1930.07,0.367045
1930.78,0.369379
1931.5,0.37166
1932.22,0.373676
1932.94,0.375639
1933.66,0.377548
1934.39,0.379405
1935.11,0.380997
1935.83,0.382588
1936.55,0.384392
1937.28,0.386142
1938.0,0.387734
1938.73,0.38906
1939.45,0.390439
1940.18,0.391872
1940.9,0.393304
1941.63,0.394683
1942.36,0.39585
1943.09,0.397123
1943.81,0.398503
1944.54,0.399617
1945.27,0.40089
1946.0,0.401951
1946.73,0.402906
1947.47,0.403861
1948.2,0.405081
1948.93,0.406195
1949.66,0.407309
1950.4,0.408423
1951.13,0.409325
1951.86,0.410333
1952.6,0.411234
1953.34,0.412083
1954.07,0.412985
1954.81,0.413993
1955.55,0.414842
1956.29,0.415531
1957.02,0.416274
1957.76,0.417123
1958.5,0.417866
1959.24,0.418661
1959.98,0.419669
1960.72,0.42073
1961.47,0.421473
1962.21,0.422216
1962.95,0.422958
1963.7,0.423913
1964.44,0.424656
1965.18,0.425292
1965.93,0.426088
1966.67,0.426778
1967.42,0.42768
1968.17,0.428741
1968.92,0.429642
1969.66,0.430173
1970.41,0.430809
1971.16,0.431552
1971.91,0.432401
1972.66,0.433303
1973.41,0.433992
1974.16,0.434788
1974.92,0.435637
1975.67,0.436539
1976.42,0.437387
1977.18,0.438077
1977.93,0.438661
1978.69,0.439509
1979.44,0.440305
1980.2,0.441154
1980.95,0.442109
1981.71,0.442905
1982.47,0.443753
1983.23,0.444655
1983.99,0.445557
1984.74,0.446459
1985.51,0.447361
1986.27,0.448263
1987.03,0.448899
1987.79,0.449907
1988.55,0.450968
1989.32,0.451764
1990.08,0.452772
1990.84,0.45362
1991.61,0.454469
1992.37,0.455636
1993.14,0.456644
1993.9,0.45744
1994.67,0.458236
1995.44,0.459191
1996.21,0.460146
1996.98,0.460994
1997.75,0.462002
1998.52,0.462851
1999.29,0.4637
2000.06,0.464655
2000.83,0.46561
2001.6,0.466511
2002.38,0.46736
2003.15,0.468262
2003.93,0.469376
2004.7,0.470331
2005.48,0.471127
2006.25,0.471975
2007.03,0.472983
2007.81,0.473885
2008.58,0.474575
2009.36,0.475477
2010.14,0.476272
2010.92,0.477068
2011.7,0.47797
2012.48,0.478925
2013.26,0.47972
2014.05,0.480463
2014.83,0.481259
2015.61,0.482055
2016.4,0.483169
2017.18,0.484177
2017.97,0.484813
2018.75,0.485609
2019.54,0.486299
2020.32,0.487147
2021.11,0.487996
2021.9,0.488686
2022.69,0.489481
2023.48,0.490171
2024.27,0.490649
2025.06,0.491338
2025.85,0.492134
2026.64,0.492558
2027.44,0.493248
2028.23,0.494044
2029.02,0.49468
2029.82,0.495317
2030.61,0.495953
2031.41,0.496537
2032.2,0.496961
2033.0,0.497439
2033.8,0.498288
2034.6,0.498977
2035.4,0.499402
2036.2,0.499879
2037.0,0.500356
2037.8,0.500675
2038.6,0.501205
2039.4,0.501736
2040.2,0.50216
2041.01,0.502425
2041.81,0.502956
2042.61,0.503327
2043.42,0.503646
2044.22,0.504017
2045.03,0.504229
2045.84,0.50476
2046.65,0.505025
2047.46,0.505184
2048.26,0.505396
2049.07,0.505714
2049.88,0.506033
2050.69,0.506245
2051.51,0.506616
2052.32,0.506935
2053.13,0.507094
2053.94,0.507041
2054.76,0.506988
2055.57,0.507306
2056.39,0.507465
2057.2,0.507624
2058.02,0.508049
2058.84,0.508049
2059.66,0.507889
2060.48,0.507942
2061.29,0.507942
2062.11,0.508155
2062.94,0.508155
2063.76,0.508102
2064.58,0.507942
2065.4,0.508049
2066.22,0.508049
2067.05,0.507995
2067.87,0.507995
2068.7,0.507995
2069.52,0.507836
2070.35,0.507889
2071.18,0.507783
2072.0,0.507677
2072.83,0.507571
2073.66,0.507518
2074.49,0.507306
2075.32,0.507147
2076.15,0.506882
2076.98,0.506828
2077.82,0.506722
2078.65,0.506457
2079.48,0.506351
2080.32,0.506139
2081.15,0.506139
2081.99,0.506033
2082.83,0.505927
2083.66,0.505714
2084.5,0.505449
2085.34,0.505449
2086.18,0.505237
2087.02,0.505025
2087.86,0.504866
2088.7,0.5046
2089.54,0.5046
2090.39,0.504707
2091.23,0.504653
2092.07,0.5046
2092.92,0.504335
2093.76,0.504176
2094.61,0.504176
2095.45,0.50407
2096.3,0.50407
2097.15,0.50407
2098.0,0.503805
2098.85,0.503752
2099.7,0.503646
2100.55,0.503592
2101.4,0.503539
2102.25,0.503592
2103.1,0.503433
2103.96,0.50338
2104.81,0.503327
2105.67,0.503327
2106.52,0.50338
2107.38,0.503539
2108.24,0.503486
2109.09,0.503539
2109.95,0.503486
2110.81,0.503699
2111.67,0.503805
2112.53,0.503752
2113.39,0.503805
2114.25,0.503858
2115.12,0.503858
2115.98,0.503911
2116.84,0.504017
2117.71,0.504176
2118.58,0.504388
2119.44,0.504441
2120.31,0.5046
2121.18,0.5046
2122.04,0.504547
2122.91,0.5046
2123.78,0.504707
2124.65,0.50476
2125.52,0.504866
2126.4,0.504919
2127.27,0.50476
2128.14,0.504547
2129.02,0.504547
2129.89,0.5046
2130.77,0.504441
2131.64,0.504335
2132.52,0.504176
2133.4,0.503839
2134.27,0.503783
2135.15,0.503446
2136.03,0.502996
2136.91,0.502828
2137.79,0.502154
2138.68,0.502154
2139.56,0.502154
2140.44,0.50103
2141.33,0.5003
2142.21,0.500412
2143.1,0.500188
2143.99,0.499457
2144.87,0.498896
2145.76,0.498165
2146.65,0.497603
2147.54,0.497435
2148.43,0.496873
2149.32,0.496199
2150.21,0.495188
2151.1,0.494514
2151.99,0.49384
2152.89,0.493109
2153.78,0.492548
2154.68,0.491761
2155.57,0.490638
2156.47,0.48929
2157.37,0.488391
2158.27,0.48766
2159.16,0.486537
2160.06,0.485638
2160.96,0.484964
2161.86,0.483391
2162.77,0.481762
2163.67,0.480863
2164.57,0.479627
2165.48,0.478335
2166.38,0.477436
2167.29,0.476481
2168.2,0.474684
2169.1,0.472493
2170.01,0.470976
2170.92,0.469909
2171.83,0.46828
2172.74,0.466145
2173.65,0.46401
2174.56,0.462381
2175.47,0.460808
2176.39,0.459236
2177.3,0.45682
2178.22,0.45418
2179.13,0.452157
2180.05,0.449686
2180.96,0.447326
2181.88,0.444798
2182.8,0.441933
2183.72,0.439686
2184.64,0.437383
2185.56,0.434406
2186.48,0.431035
2187.41,0.428451
2188.33,0.426204
2189.25,0.42362
2190.18,0.420699
2191.1,0.417947
2192.03,0.414632
2192.96,0.411543
2193.89,0.408902
2194.82,0.406206
2195.74,0.403397
2196.68,0.40042
2197.61,0.397105
2198.54,0.394521
2199.47,0.391937
2200.4,0.389128
2201.34,0.386713
2202.28,0.384634
2203.21,0.382331
2204.15,0.380365
2205.08,0.379073
2206.02,0.378006
2206.96,0.376882
2207.9,0.376096
2208.84,0.375927
2209.78,0.376152
2210.73,0.376264
2211.67,0.37677
2212.61,0.377332
2213.56,0.378343
2214.5,0.379635
2215.45,0.381432
2216.4,0.382837
2217.35,0.384634
2218.3,0.386488
2219.24,0.388286
2220.2,0.389803
2221.15,0.391151
2222.1,0.392948
2223.05,0.39469
2224.0,0.395926
2224.96,0.397274
2225.91,0.398004
2226.87,0.398622
2227.83,0.39924
2228.79,0.400139
2229.74,0.400981
2230.7,0.401824
2231.66,0.402667
2232.63,0.403228
2233.59,0.40379
2234.55,0.404296
2235.51,0.405251
2236.48,0.406487
2237.44,0.407666
2238.41,0.408677
2239.38,0.409857
2240.34,0.411262
2241.31,0.412666
2242.28,0.413846
2243.25,0.415025
2244.22,0.416149
2245.19,0.417385
2246.17,0.418677
2247.14,0.419744
2248.12,0.420643
2249.09,0.421823
2250.07,0.423171
2251.04,0.424519
2252.02,0.426148
2253.0,0.427721
2253.98,0.428957
2254.96,0.429912
2255.94,0.431148
2256.92,0.432047
2257.91,0.433282
2258.89,0.434181
2259.88,0.435136
2260.86,0.436204
2261.85,0.437439
2262.83,0.438057
2263.82,0.438563
2264.81,0.439068
2265.8,0.439406
2266.79,0.439686
2267.78,0.440304
2268.78,0.440698
2269.77,0.441147
2270.76,0.441091
2271.76,0.440754
2272.75,0.440754
2273.75,0.440922
2274.75,0.440922
2275.75,0.440473
2276.75,0.439743
2277.75,0.439237
2278.75,0.438507
2279.75,0.438001
2280.75,0.438057
2281.76,0.437552
2282.76,0.436597
2283.77,0.43626
2284.77,0.43581
2285.78,0.435192
2286.79,0.434462
2287.8,0.433619
2288.81,0.432664
2289.82,0.432159
2290.83,0.431429
2291.84,0.430417
2292.86,0.429294
2293.87,0.428564
2294.89,0.428058
2295.91,0.427215
2296.92,0.426036
2297.94,0.425249
2298.96,0.424856
2299.98,0.424013
2301.0,0.42289
2302.02,0.421991
2303.04,0.421036
2304.07,0.4198
2305.09,0.418621
2306.12,0.417609
2307.15,0.416767
2308.17,0.416542
2309.2,0.415643
2310.23,0.41452
2311.26,0.413452
2312.29,0.41261
2313.32,0.411655
2314.35,0.410981
2315.39,0.40997
2316.42,0.409183
2317.46,0.40879
2318.5,0.407666
2319.53,0.405981
2320.57,0.405138
2321.61,0.40424
2322.65,0.403004
2323.69,0.401543
2324.73,0.400195
2325.78,0.399184
2326.82,0.398173
2327.86,0.397218
2328.91,0.396207
2329.96,0.394914
2331.01,0.393679
2332.05,0.392218
2333.1,0.390982
2334.15,0.389915
2335.21,0.388791
2336.26,0.387275
2337.31,0.385814
2338.36,0.384466
2339.42,0.38323
2340.48,0.381826
2341.53,0.380814
2342.59,0.38014
2343.65,0.378904
2344.71,0.377275
2345.77,0.376096
2346.83,0.375028
2347.9,0.373961
2348.96,0.372725
2350.02,0.371658
2351.09,0.370647
2352.16,0.369748
2353.23,0.368512
2354.29,0.367669
2355.36,0.366658
2356.43,0.365535
2357.51,0.364411
2358.58,0.363288
2359.65,0.362276
2360.73,0.361659
2361.8,0.361097
2362.88,0.359917
2363.96,0.358457
2365.03,0.357502
2366.11,0.356715
2367.19,0.355985
2368.27,0.354468
2369.36,0.353176
2370.44,0.352502
2371.53,0.352109
2372.61,0.351266
2373.7,0.350086
2374.78,0.34885
2375.87,0.347783
2376.96,0.34666
2378.05,0.346098
2379.14,0.345311
2380.24,0.344244
2381.33,0.343177
2382.42,0.341997
2383.52,0.340761
2384.61,0.339862
2385.71,0.33902
2386.81,0.338289
2387.91,0.337672
2389.01,0.336941
2390.11,0.335705
2391.22,0.334526
2392.32,0.333571
2393.42,0.332616
2394.53,0.331885
2395.64,0.331211
2396.74,0.330313
2397.85,0.329807
2398.96,0.329133
2400.07,0.328009
2401.18,0.327167
2402.3,0.326436
2403.41,0.325481
2404.52,0.324864
2405.64,0.323796
2406.76,0.322616
2407.88,0.321774
2408.99,0.320987
2410.11,0.320313
2411.23,0.319752
2412.36,0.319077
2413.48,0.318291
2414.6,0.317336
2415.73,0.316156
2416.85,0.31492
2417.98,0.31419
2419.11,0.313291
2420.24,0.312673
2421.37,0.311662
2422.5,0.310595
2423.64,0.309865
2424.77,0.308853
2425.9,0.307842
2427.04,0.306831
2428.18,0.306157
2429.31,0.305427
2430.45,0.304472
2431.59,0.303798
2432.73,0.303067
2433.88,0.302337
2435.02,0.301551
2436.16,0.300708
2437.31,0.299697
2438.45,0.299191
2439.6,0.298349
2440.75,0.297337
2441.9,0.296551
2443.05,0.29627
2444.2,0.295765
2445.35,0.295034
2446.51,0.29436
2447.67,0.29363
2448.82,0.292956
2449.98,0.29245
2451.14,0.292057
2452.3,0.291945
2453.46,0.291551
2454.62,0.291046
2455.78,0.290203
2456.94,0.289529
2458.11,0.288967
2459.28,0.288743
2460.44,0.288237
2461.61,0.287788
2462.78,0.28717
2463.95,0.286608
2465.12,0.286215
2466.3,0.285765
2467.47,0.285204
2468.65,0.284866
2469.82,0.284361
2471.0,0.283911
2472.18,0.283406
2473.36,0.2829
2474.54,0.282395
2475.72,0.281833
2476.9,0.28144
2478.08,0.280878
2479.27,0.280092
2480.46,0.279586
2481.64,0.278968
2482.83,0.278406
2484.02,0.277845
2485.21,0.277227
2486.4,0.276552
2487.6,0.275991
2488.79,0.275317
2489.99,0.274755
2491.18,0.2738
2492.38,0.273294
2493.58,0.272508
2494.78,0.271778
2495.98,0.27116
2497.18,0.270486
2498.39,0.269474
2499.59,0.268632
2500.8,0.267901
2502.01,0.267171
2503.21,0.266216
2504.42,0.265542
2505.63,0.264756
2506.84,0.263913
2508.06,0.262958
2509.27,0.26234
2510.49,0.261441
2511.7,0.260599
2512.92,0.2597
2514.14,0.259082
2515.36,0.258801
2516.58,0.257958
2517.8,0.256891
2519.03,0.256329
2520.25,0.255768
2521.48,0.255206
2522.7,0.254251
2523.93,0.25352
2525.16,0.252846
2526.39,0.25206
2527.62,0.251779
2528.86,0.251217
2530.09,0.250262
2531.33,0.24942
2532.56,0.248689
2533.8,0.24824
2535.04,0.247285
2536.28,0.246499
2537.52,0.246105
2538.76,0.245768
2540.01,0.245319
2541.25,0.244364
2542.5,0.243072
2543.75,0.242622
2544.99,0.242398
2546.24,0.24178
2547.49,0.24133
2548.75,0.241218
2550.0,0.240319
2551.26,0.239196
2552.51,0.238297
2553.77,0.238409
2555.03,0.238128
2556.29,0.237567
2557.55,0.237061
2558.81,0.236331
2560.08,0.234477
2561.34,0.233073
2562.61,0.232623
2563.88,0.232736
2565.14,0.23341
2566.41,0.233466
2567.68,0.232398
2568.96,0.230994
2570.23,0.230601
2571.51,0.230376
2572.78,0.228691
2574.06,0.228747
2575.34,0.228185
2576.62,0.227567
2577.9,0.227961
2579.18,0.227174
2580.47,0.225601
2581.75,0.225152
2583.04,0.223354
2584.32,0.223579
2585.61,0.223691
2586.9,0.222512
2588.2,0.222343
2589.49,0.222399
2590.78,0.222175
2592.08,0.220545
2593.37,0.216501
2594.67,0.214422
2595.97,0.217063
2597.27,0.218635
2598.57,0.218186
2599.88,0.216725
2601.18,0.215658
2602.49,0.21504
2603.79,0.213467
2605.1,0.212007
2606.41,0.212175
2607.72,0.212063
2609.03,0.211389
2610.35,0.211052
2611.66,0.21049
2612.98,0.209535
2614.3,0.208524
2615.62,0.206389
2616.94,0.205547
2618.26,0.205434
2619.58,0.203187
2620.91,0.203131
2622.23,0.203524
2623.56,0.202457
2624.89,0.200547
2626.22,0.198637
2627.55,0.198244
2628.88,0.196278
2630.21,0.194536
2631.55,0.194929
2632.89,0.193581
2634.22,0.192177
2635.56,0.191503
2636.9,0.190548
2638.25,0.189199
2639.59,0.187627
2640.93,0.185997
2642.28,0.184649
2643.63,0.18302
2644.98,0.180885
2646.33,0.179313
2647.68,0.178077
2649.03,0.176448
2650.39,0.173976
2651.74,0.171223
2653.1,0.169426
2654.46,0.167459
2655.82,0.165718
2657.18,0.16392
2658.54,0.160775
2659.9,0.158247
2661.27,0.156393
2662.64,0.153696
2664.01,0.149371
2665.38,0.145832
2666.74,0.143416
2668.12,0.141225
2669.49,0.1369
2670.87,0.134372
2672.24,0.132462
2673.62,0.128642
2675.0,0.12426
2676.38,0.119486
2677.76,0.115385
2679.15,0.111115
2680.54,0.106734
2681.92,0.101285
2683.31,0.095499
2684.7,0.089544
2686.09,0.082859
2687.48,0.075669
2688.88,0.068422
2690.27,0.061456
2691.67,0.054715
2693.07,0.048199
2694.47,0.042918
2695.87,0.039211
2697.27,0.036739
2698.67,0.034492
2700.08,0.032638
2701.49,0.031121
2702.9,0.029829
2704.31,0.028593
2705.72,0.027358
2707.13,0.025953
2708.54,0.02438
2709.96,0.022583
2711.38,0.021234
2712.8,0.020167
2714.22,0.0191
2715.64,0.018145
2717.06,0.01719
2718.49,0.016235
2719.91,0.015392
2721.34,0.01483
2722.77,0.014044
2724.2,0.013314
2725.63,0.012808
2727.07,0.012359
2728.5,0.011909
2729.94,0.011516
2731.38,0.011291
2732.82,0.010954
2734.26,0.010786
2735.7,0.010673
2737.15,0.010449
2738.59,0.010112
2740.04,0.009943
2741.49,0.009831
2742.94,0.009606
2744.39,0.009662
2745.84,0.009718
2747.3,0.00955
2748.76,0.009438
2750.21,0.009438
2751.67,0.009438
2753.14,0.009494
2754.6,0.009325
2756.06,0.009381
2757.53,0.009494
2759.0,0.009718
2760.46,0.009775
2761.94,0.009718
2763.41,0.009943
2764.88,0.010168
2766.36,0.010392
2767.83,0.010673
2769.31,0.010842
2770.79,0.01073
2772.27,0.01101
2773.76,0.01146
2775.24,0.011685
2776.73,0.011741
2778.22,0.011909
2779.71,0.012134
2781.2,0.012134
2782.69,0.012302
2784.18,0.012471
2785.68,0.012808
2787.18,0.013089
2788.68,0.013314
2790.18,0.013482
2791.68,0.013594
2793.19,0.013932
2794.69,0.014212
2796.2,0.014212
2797.71,0.014156
2799.22,0.014269
2800.73,0.014381
2802.24,0.014662
2803.76,0.014887
2805.28,0.014999
2806.8,0.014943
2808.32,0.014943
2809.84,0.015224
2811.36,0.015504
2812.89,0.015448
2814.42,0.015617
2815.94,0.015898
2817.48,0.015842
2819.01,0.015842
2820.54,0.016066
2822.08,0.016291
2823.61,0.016066
2825.15,0.015954
2826.69,0.016179
2828.23,0.016179
2829.78,0.016066
2831.32,0.01601
2832.87,0.016291
2834.42,0.016572
2835.97,0.016459
2837.52,0.016403
2839.08,0.016516
2840.63,0.016628
2842.19,0.016909
2843.75,0.017077
2845.31,0.016853
2846.87,0.016853
2848.44,0.017021
2850.0,0.016965
2851.57,0.016909
2853.14,0.016909
2854.71,0.017021
2856.28,0.017077
2857.86,0.017021
2859.43,0.016965
2861.01,0.016797
2862.59,0.016853
2864.17,0.016909
2865.76,0.017021
2867.34,0.017077
2868.93,0.017021
2870.52,0.017021
2872.11,0.017021
2873.7,0.017134
2875.29,0.017077
2876.89,0.017077
2878.49,0.01719
2880.08,0.017021
2881.69,0.016909
2883.29,0.016965
2884.89,0.017021
2886.5,0.01719
2888.11,0.017021
2889.72,0.017021
2891.33,0.017134
2892.94,0.017246
2894.56,0.017246
2896.17,0.017246
2897.79,0.01719
2899.42,0.017134
2901.04,0.017077
2902.66,0.017021
2904.29,0.016909
2905.92,0.017077
2907.55,0.017246
2909.18,0.01719
2910.81,0.017358
2912.45,0.017414
2914.08,0.017527
2915.72,0.017583
2917.36,0.017471
2919.01,0.017414
2920.65,0.017302
2922.3,0.017302
2923.94,0.017414
2925.59,0.017414
2927.25,0.017414
2928.9,0.017471
2930.56,0.017527
2932.21,0.017695
2933.87,0.017808
2935.53,0.017808
2937.2,0.017864
2938.86,0.01792
2940.53,0.017976
2942.2,0.017976
2943.87,0.017808
2945.54,0.017695
2947.22,0.017864
2948.89,0.018145
2950.57,0.018257
2952.25,0.018313
2953.93,0.018426
2955.62,0.018594
2957.3,0.018538
2958.99,0.018369
2960.68,0.018369
2962.37,0.018426
2964.07,0.018706
2965.76,0.018763
2967.46,0.018594
2969.16,0.018706
2970.86,0.018931
2972.56,0.019044
2974.27,0.019156
2975.98,0.019156
2977.69,0.019268
2979.4,0.019324
2981.11,0.019549
2982.83,0.019661
2984.54,0.019774
2986.26,0.019942
2987.98,0.020055
2989.71,0.020055
2991.43,0.020111
2993.16,0.020392
2994.89,0.02056
2996.62,0.020616
2998.35,0.020841
3000.09,0.02101
3001.83,0.020954
3003.57,0.02101
3005.31,0.021122
3007.05,0.021347
3008.79,0.021515
3010.54,0.021515
3012.29,0.021684
3014.04,0.02174
3015.8,0.021796
3017.55,0.022133
3019.31,0.022526
3021.07,0.02247
3022.83,0.022695
3024.59,0.02292
3026.36,0.02292
3028.13,0.023032
3029.9,0.023257
3031.67,0.023313
3033.44,0.023425
3035.22,0.023481
3037.0,0.023538
3038.78,0.023538
3040.56,0.023706
3042.34,0.023706
3044.13,0.023818
3045.92,0.023931
3047.71,0.023875
3049.5,0.023818
3051.3,0.023818
3053.09,0.023762
3054.89,0.023818
3056.69,0.023931
3058.5,0.023987
3060.3,0.023987
3062.11,0.023931
3063.92,0.023875
3065.73,0.023987
3067.55,0.024268
3069.36,0.024212
3071.18,0.024156
3073.0,0.024268
3074.82,0.024436
3076.65,0.02438
3078.48,0.024268
3080.31,0.024324
3082.14,0.02438
3083.97,0.024493
3085.8,0.024661
3087.64,0.024773
3089.48,0.02483
3091.33,0.02511
3093.17,0.025167
3095.02,0.025223
3096.87,0.025504
3098.72,0.025672
3100.57,0.025785
3102.43,0.026122
3104.28,0.02629
3106.14,0.026346
3108.01,0.026571
3109.87,0.026908
3111.74,0.027301
3113.61,0.027526
3115.48,0.027695
3117.35,0.027975
3119.23,0.028313
3121.1,0.02865
3122.98,0.029043
3124.87,0.02938
3126.75,0.029548
3128.64,0.029717
3130.53,0.029998
3132.42,0.030447
3134.31,0.031009
3136.21,0.031402
3138.11,0.031571
3140.01,0.03202
3141.91,0.032413
3143.82,0.032694
3145.73,0.033031
3147.64,0.033593
3149.55,0.034042
3151.46,0.034436
3153.38,0.034829
3155.3,0.035278
3157.22,0.035615
3159.14,0.036121
3161.07,0.036626
3163.0,0.037076
3164.93,0.037638
3166.86,0.038143
3168.8,0.038536
3170.74,0.039042
3172.68,0.03966
3174.62,0.040166
3176.56,0.040671
3178.51,0.041177
3180.46,0.041626
3182.42,0.042188
3184.37,0.042693
3186.33,0.043087
3188.29,0.043705
3190.25,0.044323
3192.21,0.044828
3194.18,0.045334
3196.15,0.045839
3198.12,0.046457
3200.09,0.047075
3202.07,0.047749
3204.05,0.048311
3206.03,0.048873
3208.02,0.049378
3210.0,0.049996
3211.99,0.05067
3213.98,0.051232
3215.98,0.05185
3217.97,0.052468
3219.97,0.053142
3221.97,0.05376
3223.98,0.054378
3225.98,0.055052
3227.99,0.055726
3230.0,0.056513
3232.02,0.057074
3234.03,0.057636
3236.05,0.058366
3238.07,0.059153
3240.1,0.059827
3242.12,0.060389
3244.15,0.061063
3246.18,0.061793
3248.22,0.062411
3250.25,0.063254
3252.29,0.06404
3254.33,0.064827
3256.38,0.065557
3258.43,0.066119
3260.47,0.066905
3262.53,0.067748
3264.58,0.068647
3266.64,0.069433
3268.7,0.070051
3270.76,0.070725
3272.82,0.071568
3274.89,0.072298
3276.96,0.073084
3279.04,0.073927
3281.11,0.074826
3283.19,0.075612
3285.27,0.076286
3287.35,0.077129
3289.44,0.077972
3291.53,0.078814
3293.62,0.079601
3295.71,0.080443
3297.81,0.08123
3299.91,0.082016
3302.01,0.082915
3304.11,0.083702
3306.22,0.084488
3308.33,0.085387
3310.44,0.086173
3312.56,0.087072
3314.68,0.087859
3316.8,0.088701
3318.92,0.089544
3321.05,0.090443
3323.18,0.091173
3325.31,0.092128
3327.44,0.093139
3329.58,0.094094
3331.72,0.094824
3333.86,0.095611
3336.01,0.096622
3338.16,0.097465
3340.31,0.098251
3342.46,0.099094
3344.61,0.100105
3346.77,0.10106
3348.94,0.10179
3351.1,0.102577
3353.27,0.103419
3355.44,0.104262
3357.61,0.105105
3359.79,0.105947
3361.97,0.106846
3364.15,0.107689
3366.33,0.108363
3368.52,0.109037
3370.71,0.109823
3372.9,0.110666
3375.1,0.111452
3377.3,0.112351
3379.5,0.11325
3381.71,0.11398
3383.91,0.114823
3386.12,0.115778
3388.34,0.116901
3390.55,0.1178
3392.77,0.118699
3394.99,0.119598
3397.22,0.120328
3399.45,0.121002
3401.68,0.12162
3403.91,0.12207
3406.15,0.122519
3408.39,0.123081
3410.63,0.123643
3412.87,0.124036
3415.12,0.124485
3417.37,0.125159
3419.63,0.126395
3421.88,0.12808
3424.14,0.129934
3426.41,0.131676
3428.67,0.133305
3430.94,0.134878
3433.21,0.136226
3435.49,0.137462
3437.77,0.138698
3440.05,0.139877
3442.33,0.141057
3444.62,0.142293
3446.91,0.143529
3449.2,0.144596
3451.5,0.145607
3453.8,0.146731
3456.1,0.147854
3458.41,0.148922
3460.72,0.149989
3463.03,0.151
3465.34,0.152011
3467.66,0.152966
3469.98,0.153809
3472.31,0.154764
3474.63,0.155663
3476.96,0.156449
3479.3,0.157236
3481.64,0.158134
3483.97,0.159089
3486.32,0.159932
3488.66,0.16055
3491.01,0.161112
3493.36,0.161617
3495.72,0.161842
3498.08,0.162067
3500.44,0.162572
3502.81,0.163471
3505.18,0.164875
3507.55,0.166561
3509.92,0.168246
3512.3,0.169763
3514.68,0.171167
3517.06,0.172571
3519.45,0.174032
3521.84,0.175436
3524.24,0.176785
3526.64,0.17802
3529.04,0.179369
3531.44,0.180605
3533.85,0.181616
3536.26,0.182683
3538.67,0.183807
3541.09,0.184874
3543.51,0.185997
3545.93,0.187009
3548.36,0.18802
3550.79,0.189143
3553.22,0.190098
3555.66,0.191166
3558.1,0.192289
3560.54,0.193188
3562.99,0.194031
3565.44,0.195154
3567.9,0.196278
3570.35,0.197176
3572.81,0.198019
3575.28,0.198918
3577.75,0.199873
3580.22,0.200884
3582.69,0.201895
3585.17,0.202794
3587.65,0.20358
3590.14,0.204423
3592.62,0.205322
3595.11,0.206277
3597.61,0.207176
3600.11,0.207962
3602.61,0.208749
3605.11,0.209647
3607.62,0.210378
3610.14,0.211276
3612.65,0.212175
3615.17,0.212906
3617.69,0.213692
3620.22,0.214422
3622.75,0.215209
3625.28,0.215883
3627.82,0.216613
3630.36,0.2174
3632.9,0.218186
3635.45,0.218916
3638.0,0.219647
3640.56,0.220321
3643.12,0.221051
3645.68,0.221725
3648.24,0.222399
3650.81,0.223017
3653.39,0.223579
3655.96,0.224422
3658.54,0.225039
3661.13,0.225657
3663.71,0.226332
3666.3,0.227006
3668.9,0.227736
3671.5,0.228522
3674.1,0.229196
3676.7,0.229871
3679.31,0.230545
3681.93,0.231163
3684.54,0.231837
3687.17,0.232623
3689.79,0.233353
3692.42,0.234084
3695.05,0.234814
3697.69,0.2356
3700.32,0.236275
3702.97,0.237117
3705.61,0.237848
3708.27,0.238465
3710.92,0.239252
3713.58,0.240095
3716.24,0.240881
3718.91,0.241555
3721.58,0.242173
3724.25,0.242847
3726.93,0.243577
3729.61,0.244308
3732.29,0.244982
3734.98,0.245712
3737.67,0.246442
3740.37,0.24706
3743.07,0.247678
3745.78,0.248352
3748.49,0.24897
3751.2,0.249532
3753.91,0.25015
3756.63,0.25088
3759.36,0.251442
3762.09,0.251891
3764.82,0.252453
3767.55,0.253071
3770.29,0.253577
3773.04,0.254195
3775.78,0.254813
3778.54,0.255374
3781.29,0.25588
3784.05,0.256329
3786.82,0.256835
3789.59,0.257284
3792.36,0.25779
3795.13,0.258239
3797.92,0.258576
3800.7,0.25897
3803.49,0.259475
3806.28,0.259925
3809.08,0.260318
3811.88,0.260711
3814.68,0.261217
3817.49,0.26161
3820.31,0.261947
3823.12,0.262396
3825.94,0.262677
3828.77,0.262958
3831.6,0.263239
3834.43,0.263576
3837.27,0.263857
3840.11,0.264138
3842.96,0.264475
3845.81,0.264812
3848.67,0.265093
3851.53,0.265374
3854.39,0.265486
3857.26,0.265711
3860.13,0.265935
3863.01,0.266104
3865.89,0.266385
3868.77,0.266553
3871.66,0.266778
3874.55,0.266946
3877.45,0.267115
3880.35,0.26734
3883.26,0.267452
3886.17,0.267564
3889.09,0.267733
3892.01,0.267789
3894.93,0.267733
3897.86,0.267789
3900.79,0.267901
3903.73,0.26807
3906.67,0.268182
3909.62,0.268295
3912.57,0.268182
3915.52,0.26807
3918.48,0.268126
3921.45,0.268182
3924.42,0.268182
3927.39,0.268182
3930.37,0.26807
3933.35,0.267958
3936.34,0.267845
3939.33,0.267901
3942.32,0.267733
3945.32,0.267621
3948.33,0.267564
3951.34,0.267508
3954.35,0.267396
3957.37,0.267115
3960.39,0.266778
3963.42,0.266834
3966.45,0.266834
3969.49,0.266609
3972.53,0.266385
3975.58,0.266216
3978.63,0.265935
3981.68,0.265711
3984.75,0.26543
3987.81,0.265149
3990.88,0.264924
3993.95,0.264643
3997.03,0.264362
4000.12,0.264082
4003.21,0.263744
4006.3,0.263351
4009.4,0.263014
4012.5,0.262677
4015.61,0.262396
4018.72,0.261947
4021.84,0.261441
4024.96,0.260992
4028.09,0.260599
4031.22,0.260149
4034.36,0.259587
4037.5,0.259138
4040.65,0.258632
4043.8,0.258127
4046.96,0.257565
4050.12,0.257116
4053.29,0.256666
4056.46,0.256217
4059.64,0.255599
4062.82,0.255093
4066.0,0.254475
4069.19,0.253801
4072.39,0.253296
4075.59,0.252734
4078.8,0.252172
4082.01,0.251667
4085.23,0.251049
4088.45,0.250487
4091.68,0.249925
4094.91,0.249364
4098.15,0.248746
4101.39,0.24824
4104.63,0.247622
4107.89,0.247004
4111.14,0.24633
4114.41,0.245712
4117.67,0.245207
4120.95,0.244645
4124.23,0.244083
4127.51,0.243465
4130.8,0.242791
4134.09,0.242173
4137.39,0.241443
4140.7,0.240825
4144.01,0.240263
4147.32,0.239645
4150.64,0.239027
4153.97,0.238353
4157.3,0.237735
4160.64,0.237173
4163.98,0.236499
4167.33,0.235825
4170.68,0.235207
4174.04,0.234477
4177.4,0.233803
4180.77,0.233129
4184.14,0.232398
4187.52,0.231724
4190.91,0.231106
4194.3,0.230432
4197.69,0.229702
4201.1,0.229084
4204.5,0.228298
4207.92,0.227511
4211.34,0.226781
4214.76,0.226051
4218.19,0.225208
4221.62,0.224478
4225.06,0.223747
4228.51,0.223017
4231.96,0.222399
4235.42,0.221725
4238.88,0.221051
4242.35,0.220545
4245.83,0.22004
4249.31,0.219534
4252.79,0.219029
4256.28,0.218411
4259.78,0.217568
4263.29,0.216782
4266.79,0.216164
4270.31,0.215602
4273.83,0.214984
4277.35,0.214422
4280.89,0.213804
4284.42,0.21313
4287.97,0.212568
4291.52,0.212119
4295.07,0.21167
4298.63,0.211108
4302.2,0.21049
4305.78,0.209984
4309.35,0.209479
4312.94,0.208973
4316.53,0.208468
4320.13,0.207962
4323.73,0.2074
4327.34,0.206839
4330.96,0.206333
4334.58,0.20594
4338.21,0.20549
4341.84,0.204985
4345.48,0.204479
4349.12,0.203917
4352.77,0.203412
4356.43,0.203075
4360.1,0.202569
4363.76,0.202064
4367.44,0.201614
4371.12,0.201165
4374.81,0.200659
4378.51,0.200154
4382.21,0.199704
4385.92,0.199311
4389.63,0.198862
4393.35,0.198581
4397.08,0.198244
4400.81,0.197794
4404.55,0.197345
4408.29,0.196952
4412.04,0.196558
4415.8,0.196053
4419.57,0.195716
4423.34,0.195491
4427.12,0.195098
4430.9,0.194648
4434.69,0.194199
4438.49,0.193862
4442.29,0.193469
4446.1,0.193188
4449.92,0.192907
4453.74,0.192626
4457.57,0.192233
4461.41,0.191896
4465.25,0.191559
4469.1,0.191222
4472.95,0.190885
4476.82,0.190548
4480.69,0.190211
4484.56,0.189817
4488.44,0.189536
4492.33,0.189199
4496.23,0.188862
4500.13,0.188638
4504.04,0.188413
4507.96,0.188188
4511.88,0.187851
4515.81,0.187514
4519.75,0.187121
4523.69,0.186896
4527.65,0.186615
4531.6,0.186278
4535.57,0.185941
4539.54,0.18566
4543.52,0.185436
4547.5,0.185211
4551.5,0.185042
4555.5,0.184818
4559.5,0.184481
4563.52,0.1842
4567.54,0.183863
4571.56,0.183694
4575.6,0.18347
4579.64,0.183189
4583.69,0.182964
4587.75,0.182683
4591.81,0.182515
4595.88,0.182346
4599.96,0.182009
4604.04,0.181784
4608.14,0.181503
4612.24,0.181279
4616.34,0.181054
4620.46,0.180773
4624.58,0.180492
4628.71,0.18038
4632.84,0.180155
4636.99,0.179818
4641.14,0.17965
4645.3,0.179593
4649.47,0.179369
4653.64,0.179032
4657.82,0.178751
4662.01,0.178526
4666.21,0.178358
4670.41,0.178077
4674.62,0.177627
4678.84,0.177403
4683.07,0.177234
4687.3,0.177066
4691.54,0.176897
4695.79,0.176616
4700.05,0.176279
4704.31,0.175998
4708.59,0.175717
4712.87,0.175493
4717.15,0.175212
4721.45,0.174875
4725.76,0.174594
4730.07,0.174313
4734.39,0.173976
4738.72,0.173751
4743.05,0.17347
4747.39,0.173189
4751.75,0.172852
4756.1,0.172459
4760.47,0.172122
4764.85,0.171897
4769.23,0.17156
4773.62,0.171223
4778.02,0.170774
4782.43,0.170437
4786.85,0.1701
4791.27,0.169763
4795.7,0.169313
4800.14,0.16892
4804.59,0.168471
4809.05,0.168077
4813.51,0.167684
4817.99,0.167347
4822.47,0.166954
4826.96,0.166561
4831.46,0.166055
4835.96,0.165662
4840.48,0.165325
4845.0,0.164932
4849.54,0.164482
4854.08,0.164033
4858.63,0.16364
4863.18,0.163302
4867.75,0.162909
4872.33,0.16246
4876.91,0.162067
4881.5,0.161561
4886.1,0.161055
4890.71,0.16055
4895.33,0.159932
4899.96,0.159483
4904.59,0.158977
4909.24,0.158471
4913.89,0.15791
4918.55,0.157404
4923.22,0.156786
4927.9,0.156056
4932.59,0.155326
4937.29,0.154539
4942.0,0.153753
4946.71,0.152966
4951.44,0.152236
4956.17,0.151393
4960.91,0.150438
4965.67,0.149652
4970.43,0.148753
4975.2,0.147798
4979.98,0.146843
4984.76,0.145776
4989.56,0.144596
4994.37,0.143641
4999.18,0.142686
5004.01,0.141675
5008.84,0.140495
5013.69,0.139203
5018.54,0.138023
5023.4,0.137068
5028.28,0.136001
5033.16,0.134934
5038.05,0.133754
5042.95,0.132631
5047.86,0.131451
5052.78,0.130327
5057.71,0.129204
5062.65,0.128137
5067.6,0.127125
5072.56,0.12617
5077.53,0.125159
5082.5,0.124036
5087.49,0.123025
5092.49,0.12207
5097.5,0.121227
5102.51,0.120497
5107.54,0.11971
5112.58,0.11898
5117.62,0.11825
5122.68,0.117576
5127.75,0.116845
5132.82,0.116227
5137.91,0.115553
5143.01,0.114879
5148.12,0.114317
5153.23,0.113924
5158.36,0.113419
5163.5,0.113138
5168.65,0.112688
5173.81,0.112295
5178.98,0.111958
5184.15,0.111565
5189.34,0.111228
5194.54,0.110778
5199.75,0.110441
5204.98,0.11016
5210.21,0.109711
5215.45,0.10943
5220.7,0.109318
5225.96,0.108981
5231.23,0.108531
5236.52,0.108138
5241.81,0.107857
5247.12,0.107576
5252.44,0.107127
5257.76,0.106677
5263.1,0.106116
5268.45,0.105498
5273.81,0.104936
5279.18,0.104487
5284.56,0.103756
5289.95,0.102858
5295.36,0.10224
5300.77,0.101734
5306.2,0.101004
5311.63,0.100217
5317.08,0.099318
5322.54,0.09842
5328.01,0.097465
5333.49,0.09651
5338.98,0.095555
5344.49,0.094487
5350.0,0.093252
5355.53,0.092465
5361.07,0.091735
5366.62,0.090948
5372.18,0.090106
5377.75,0.089319
5383.34,0.088589
5388.93,0.087971
5394.54,0.087241
5400.16,0.086567
5405.79,0.085892
5411.44,0.085275
5417.09,0.084488
5422.76,0.083983
5428.43,0.084151
5434.12,0.084095
5439.83,0.083983
5445.54,0.08387
5451.26,0.083758
5457.0,0.083702
5462.75,0.083477
5468.52,0.083758
5474.29,0.084151
5480.08,0.084432
5485.88,0.084994
5491.69,0.085499
5497.51,0.086005
5503.35,0.086454
5509.2,0.087016
5515.06,0.087465
5520.93,0.087859
5526.82,0.088477
5532.71,0.089095
5538.63,0.089656
5544.55,0.089993
5550.49,0.090218
5556.44,0.090667
5562.4,0.091173
5568.37,0.091398
5574.36,0.091342
5580.36,0.09151
5586.37,0.092128
5592.4,0.092353
5598.44,0.09224
5604.49,0.092297
5610.56,0.09224
5616.63,0.092016
5622.73,0.091903
5628.83,0.091398
5634.95,0.090499
5641.08,0.089488
5647.23,0.089488
5653.39,0.089263
5659.56,0.08887
5665.74,0.088252
5671.94,0.087241
5678.15,0.08651
5684.38,0.085892
5690.62,0.084769
5696.87,0.083926
5703.14,0.08269
5709.42,0.081174
5715.72,0.080331
5722.03,0.079545
5728.35,0.078477
5734.69,0.077241
5741.03,0.075837
5747.4,0.074489
5753.78,0.073422
5760.17,0.07168
5766.58,0.069882
5773.0,0.069321
5779.44,0.068422
5785.88,0.067242
5792.35,0.065894
5798.83,0.064433
5805.32,0.062973
5811.83,0.061344
5818.35,0.059209
5824.89,0.057805
5831.45,0.056794
5838.01,0.055558
5844.59,0.054097
5851.19,0.052356
5857.8,0.05039
5864.43,0.048648
5871.07,0.046907
5877.73,0.044547
5884.4,0.042862
5891.09,0.041458
5897.79,0.03966
5904.5,0.038256
5911.23,0.036514
5917.98,0.034773
5924.75,0.032863
5931.53,0.030728
5938.32,0.028762
5945.13,0.027414
5951.96,0.025841
5958.8,0.024324
5965.65,0.022695
5972.53,0.021234
5979.42,0.019942
5986.32,0.01865
5993.24,0.017471
6000.18,0.016516
6007.13,0.015561
6014.1,0.014718
6021.08,0.014044
6028.09,0.01337
6035.1,0.012696
6042.14,0.012022
6049.19,0.011404
6056.25,0.011179
6063.34,0.010954
6070.44,0.010673
6077.55,0.010449
6084.69,0.01028
6091.84,0.010055
6099.0,0.009943
6106.19,0.009831
6113.39,0.009775
6120.61,0.009943
6127.84,0.010168
6135.09,0.010449
6142.36,0.010842
6149.65,0.011235
6156.95,0.011685
6164.27,0.012359
6171.61,0.013033
6178.97,0.013707
6186.34,0.014549
6193.73,0.015673
6201.14,0.016684
6208.57,0.017808
6216.01,0.019044
6223.47,0.02056
6230.95,0.022246
6238.45,0.024212
6245.97,0.026178
6253.5,0.028425
6261.06,0.03056
6268.63,0.03275
6276.21,0.034997
6283.82,0.037076
6291.45,0.038817
6299.1,0.040615
6306.76,0.042244
6314.44,0.043705
6322.14,0.045053
6329.86,0.046457
6337.6,0.0473
6345.35,0.04848
6353.13,0.050109
6360.92,0.051064
6368.74,0.051794
6376.57,0.052974
6384.43,0.053929
6392.3,0.054715
6400.19,0.055108
6408.1,0.054659
6416.03,0.055164
6423.98,0.056681
6431.95,0.05758
6439.94,0.058479
6447.95,0.059153
6455.98,0.059827
6464.03,0.060164
6472.1,0.06022
6480.19,0.060276
6488.31,0.060108
6496.44,0.060726
6504.59,0.061906
6512.76,0.06213
6520.95,0.062074
6529.16,0.06258
6537.4,0.062636
6545.65,0.062467
6553.92,0.062299
6562.22,0.06213
6570.54,0.061737
6578.88,0.061962
6587.23,0.062018
6595.61,0.062018
6604.02,0.062186
6612.44,0.062018
6620.89,0.061625
6629.35,0.06067
6637.84,0.059996
6646.35,0.060613
6654.88,0.060894
6663.44,0.060501
6672.01,0.059996
6680.61,0.059602
6689.23,0.059546
6697.88,0.059321
6706.54,0.058704
6715.23,0.058198
6723.94,0.058029
6732.67,0.057805
6741.42,0.057411
6750.2,0.056794
6759.0,0.056232
6767.82,0.055445
6776.67,0.05449
6785.54,0.053423
6794.44,0.052693
6803.35,0.052299
6812.29,0.051794
6821.26,0.051064
6830.24,0.050558
6839.25,0.050221
6848.29,0.049378
6857.35,0.048255
6866.43,0.047805
6875.54,0.047862
6884.67,0.047581
6893.82,0.047131
6903.0,0.046626
6912.2,0.046176
6921.43,0.045615
6930.69,0.044997
6939.96,0.044379
6949.27,0.043761
6958.59,0.042974
6967.95,0.042693
6977.33,0.042244
6986.73,0.041626
6996.16,0.041177
7005.61,0.040896
7015.09,0.040503
7024.6,0.040109
7034.13,0.039548
7043.69,0.038817
7053.27,0.038649
7062.88,0.038649
7072.52,0.038368
7082.18,0.037975
7091.87,0.037581
7101.58,0.037188
7111.32,0.036683
7121.09,0.036289
7130.88,0.035952
7140.71,0.035503
7150.56,0.034997
7160.43,0.034492
7170.33,0.033986
7180.27,0.033705
7190.23,0.033144
7200.21,0.032582
7210.23,0.032076
7220.27,0.031739
7230.34,0.03129
7240.44,0.030784
7250.56,0.030166
7260.72,0.029661
7270.9,0.029155
7281.12,0.028762
7291.36,0.028256
7301.63,0.027638
7311.93,0.027189
7322.25,0.026796
7332.61,0.02629
7343.0,0.025728
7353.41,0.025279
7363.86,0.02483
7374.33,0.024268
7384.83,0.023762
7395.37,0.023313
7405.93,0.022976
7416.53,0.022583
7427.15,0.022077
7437.81,0.021684
7448.5,0.021178
7459.22,0.020616
7469.96,0.020167
7480.74,0.019718
7491.55,0.019381
7502.39,0.018987
7513.27,0.01865
7524.17,0.018089
7535.11,0.017583
7546.08,0.017077
7557.08,0.016628
7568.11,0.016179
7579.17,0.015729
7590.27,0.01528
7601.4,0.014887
7612.56,0.014493
7623.76,0.013988
7634.98,0.013538
7646.24,0.013201
7657.54,0.012696
7668.87,0.012246
7680.23,0.011797
7691.62,0.011291
7703.05,0.010786
7714.51,0.010449
7726.01,0.010112
7737.54,0.009718
7749.11,0.009269
7760.71,0.008932
7772.35,0.008595
7784.02,0.008258
7795.72,0.007865
7807.46,0.007471
7819.23,0.007134
7831.04,0.006741
7842.89,0.006404
7854.77,0.006179
7866.69,0.005842
7878.65,0.005505
7890.64,0.005224
7902.67,0.005
7914.74,0.004719
7926.84,0.004438
7938.98,0.004326
7951.16,0.004213
7963.37,0.003932
7975.62,0.003651
7987.91,0.003427
8000.24,0.003427
8012.6,0.003202
8025.01,0.00309
8037.45,0.002977
8049.93,0.002809
8062.45,0.002696
8075.01,0.002753
8087.61,0.002696
8100.24,0.002472
8112.91,0.002303
8125.63,0.002303
8138.39,0.002303
8151.18,0.002303
8164.02,0.002303
8176.9,0.002416
8189.81,0.002416
8202.77,0.002416
8215.77,0.002472
8228.82,0.002584
8241.9,0.002696
8255.02,0.002753
8268.19,0.002809
8281.39,0.002921
8294.65,0.00309
8307.94,0.003371
8321.28,0.003651
8334.66,0.004045
8348.08,0.004494
8361.54,0.004887
8375.05,0.005337
8388.6,0.006011
8402.2,0.006685
8415.84,0.007359
8429.52,0.008258
8443.25,0.009157
8457.02,0.009943
8470.84,0.010898
8484.7,0.011965
8498.61,0.012977
8512.57,0.013932
8526.57,0.014999
8540.62,0.016179
8554.71,0.017414
8568.85,0.018594
8583.04,0.019718
8597.27,0.020897
8611.55,0.022133
8625.88,0.023088
8640.26,0.024156
8654.68,0.025448
8669.16,0.026683
8683.68,0.027863
8698.25,0.028874
8712.87,0.029829
8727.53,0.030784
8742.25,0.031627
8757.02,0.03202
8771.83,0.032413
8786.7,0.032694
8801.62,0.03275
8816.59,0.032694
8831.61,0.032469
8846.68,0.032132
8861.8,0.031627
8876.97,0.030953
8892.2,0.030166
8907.48,0.029436
8922.81,0.02893
8938.2,0.028593
8953.63,0.028425
8969.13,0.028369
8984.67,0.02865
9000.27,0.029211
9015.92,0.029885
9031.63,0.03084
9047.39,0.031908
9063.21,0.032919
9079.08,0.034211
9095.01,0.03584
9111.0,0.037469
9127.04,0.039435
9143.13,0.04157
9159.28,0.043592
9175.49,0.045783
9191.76,0.048199
9208.09,0.050614
9224.47,0.053142
9240.92,0.055614
9257.42,0.057917
9273.98,0.060276
9290.6,0.062636
9307.28,0.064658
9324.02,0.066231
9340.82,0.067579
9357.68,0.06859
9374.6,0.06904
9391.58,0.069433
9408.62,0.069489
9425.73,0.068927
9442.9,0.068197
9460.13,0.067074
9477.42,0.065613
9494.78,0.063984
9512.2,0.062411
9529.69,0.060838
9547.24,0.059153
9564.86,0.057636
9582.54,0.056119
9600.28,0.054659
9618.1,0.053086
9635.97,0.051569
9653.92,0.050165
9671.93,0.048873
9690.01,0.047749
9708.16,0.046794
9726.37,0.045839
9744.65,0.044772
9763.0,0.04348
9781.43,0.042244
9799.92,0.041289
9818.48,0.040615
9837.1,0.039941
9855.8,0.039098
9874.58,0.037975
9893.42,0.03702
9912.34,0.036121
9931.33,0.035278
9950.39,0.034436
9969.52,0.033481
9988.74,0.032526
10008.0,0.031683
10027.4,0.03084
10046.8,0.029998
10066.3,0.02938
10085.9,0.028818
10105.6,0.028144
10125.3,0.027414
10145.1,0.02674
10165.0,0.026234
10185.0,0.025897
10205.0,0.025391
10225.2,0.024886
10245.4,0.024605
10265.7,0.024324
10286.0,0.024043
10306.5,0.023481
10327.0,0.023144
10347.6,0.022751
10368.3,0.022133
10389.1,0.021852
10409.9,0.021796
10430.9,0.021571
10451.9,0.021403
10473.0,0.021122
10494.2,0.020673
10515.5,0.020392
10536.9,0.020167
10558.4,0.019942
10579.9,0.019942
10601.5,0.019605
10623.3,0.019156
10645.1,0.019044
10667.0,0.018931
10689.0,0.018706
10711.1,0.018426
10733.2,0.018145
10755.5,0.018145
10777.9,0.017808
10800.3,0.017751
10822.9,0.017976
10845.5,0.018089
10868.2,0.018089
10891.1,0.018257
10914.0,0.018369
10937.0,0.018482
10960.2,0.018819
10983.4,0.018987
11006.7,0.019156
11030.1,0.019268
11053.6,0.0191
11077.3,0.019156
11101.0,0.019268
11124.8,0.019212
11148.7,0.018987
11172.7,0.018706
11196.9,0.018482
11221.1,0.018257
11245.4,0.018032
11269.9,0.017808
11294.4,0.017695
11319.1,0.017808
11343.9,0.018089
11368.8,0.018426
11393.7,0.018426
11418.8,0.018594
11444.0,0.018763
11469.4,0.018875
11494.8,0.0191
11520.3,0.019212
11546.0,0.019381
11571.8,0.019493
11597.7,0.019381
11623.7,0.019212
11649.8,0.019044
11676.0,0.018819
11702.4,0.018482
11728.9,0.018032
11755.5,0.017808
11782.2,0.017864
11809.0,0.017527
11836.0,0.01719
11863.0,0.017077
11890.3,0.01719
11917.6,0.017302
11945.0,0.017471
11972.6,0.017695
12000.4,0.018032
12028.2,0.018313
12056.2,0.018482
12084.3,0.01865
12112.5,0.018819
12140.9,0.019044
12169.4,0.0191
12198.0,0.018819
12226.8,0.018819
12255.7,0.018819
12284.7,0.018594
12313.9,0.018482
12343.2,0.018257
12372.7,0.017808
12402.3,0.017471
12432.0,0.017021
12461.9,0.016797
12491.9,0.016459
12522.1,0.016122
12552.4,0.016179
12582.9,0.015954
12613.5,0.01601
12644.3,0.016122
12675.2,0.016122
12706.3,0.016291
12737.5,0.016459
12768.9,0.016291
12800.4,0.015898
12832.1,0.015673
12863.9,0.015898
12895.9,0.015842
12928.1,0.015729
12960.4,0.015729
12992.9,0.015448
13025.5,0.015392
13058.3,0.015224
13091.3,0.014718
13124.4,0.014381
13157.8,0.014269
13191.2,0.013819
13224.9,0.013482
13258.7,0.01337
13292.7,0.013089
13326.9,0.012696
13361.2,0.012302
13395.7,0.01219
13430.4,0.011965
13465.3,0.011572
13500.4,0.011404
13535.7,0.01101
13571.1,0.010673
13606.7,0.010168
13642.5,0.009999
13678.5,0.009831
13714.7,0.009438
13751.1,0.00955
13787.6,0.009494
13824.4,0.008988
13861.4,0.008763
13898.5,0.008651
13935.9,0.008651
13973.5,0.008202
14011.2,0.007865
14049.2,0.007584
14087.4,0.007303
14125.8,0.007303
14164.3,0.007247
14203.2,0.007078
14242.2,0.007078
14281.4,0.006797
14320.9,0.006629
14360.5,0.006516
14400.4,0.006629
14440.5,0.006573
14480.9,0.00646
14521.4,0.006685
14562.2,0.006573
14603.3,0.006348
14644.5,0.006404
14686.0,0.006292
14727.7,0.006067
14769.7,0.00573
14811.9,0.005393
14854.3,0.005393
14897.0,0.005505
14939.9,0.005449
14983.1,0.005337
15026.5,0.005337
15070.2,0.005281
15114.2,0.004887
15158.3,0.00455
15202.8,0.004494
15247.5,0.004775
15292.5,0.004719
15337.7,0.004326
15383.2,0.004382
15429.0,0.004606
15475.1,0.004382
15521.4,0.004494
15568.0,0.004775
15614.9,0.005281
15662.1,0.00573
15709.6,0.006235
15757.3,0.00646
15805.4,0.007247
15853.7,0.007752
15902.3,0.007977
15951.2,0.008258
16000.5,0.008426
16050.0,0.008932
16099.8,0.00955
16150.0,0.009718
16200.5,0.009999
16251.3,0.010392
16302.4,0.01073
16353.8,0.010954
16405.5,0.011685
16457.6,0.012696
16510.0,0.013426
16562.8,0.013932
16615.9,0.013875
16669.3,0.014269
16723.1,0.015504
16777.2,0.016459
16831.7,0.017302
16886.5,0.018426
16941.7,0.019324
16997.2,0.020336
17053.1,0.021628
17109.4,0.022302
17166.1,0.023425
17223.1,0.024998
17280.5,0.025672
17338.3,0.026178
17396.5,0.02747
17455.1,0.028762
17514.0,0.030054
17573.4,0.030897
17633.2,0.031571
17693.4,0.032132
17754.0,0.032413
17815.0,0.032694
17876.4,0.034211
17938.3,0.03584
18000.5,0.037076
18063.3,0.037525
18126.4,0.037694
18190.0,0.038312
18254.1,0.039042
18318.6,0.039716
18383.5,0.040559
18449.0,0.04157
18514.9,0.0423
18581.2,0.042188
18648.0,0.043031
18715.4,0.043199
18783.2,0.043143
18851.5,0.042693
18920.3,0.042244
18989.6,0.042132
19059.4,0.041514
19129.7,0.039267
19200.6,0.03775
19272.0,0.037469
19343.9,0.036346
19416.3,0.034042
19489.3,0.032245
19562.8,0.030897
19637.0,0.030279
19711.6,0.029267
19786.8,0.027919
19862.6,0.027077
19939.0,0.027189
20016.0,0.026964
20093.6,0.026065
20171.8,0.027077
20250.6,0.028874
20330.0,0.029492
20410.0,0.031121
20490.7,0.034492
20572.0,0.038312
20654.0,0.042132
20736.6,0.044266
20819.9,0.04494
20903.8,0.04685
20988.5,0.048817
21073.8,0.051064
21159.8,0.052637
21246.5,0.052468
21334.0,0.051962
21422.1,0.051288
21511.0,0.050277
21600.7,0.049715
21691.0,0.04921
21782.1,0.047412
21874.0,0.045783
21966.7,0.044491
22060.2,0.042525
22154.5,0.042469
22249.6,0.043368
22345.5,0.041963
22442.2,0.039323
22539.8,0.038087
22638.2,0.03848
22737.5,0.038424
22837.7,0.038031
22938.7,0.03775
23040.7,0.03702
23143.5,0.035672
23247.3,0.034604
23352.1,0.037806
23457.7,0.040109
23564.4,0.040334
23672.0,0.039829
23780.5,0.03893
23890.1,0.03657
24000.7,0.03511
24112.3,0.036907
24225.0,0.039829
24338.7,0.041738
24453.5,0.040952
24569.4,0.037862
24686.4,0.039098
24804.5,0.038817
24923.8,0.036851