Composition,
Date Added,2022-04-27 20:01:21.802505
Formula,
Grain Size,
Locality,
Minimum Wavelength,1380.0
Sample Name,Montmorillonite
Maximum Wavelength,216006.0
Database of Origin,USGS Spectral Database
Other Information,
References,
Resolution,
Material Class,Phyllosilicate
Sample Description,See USGS database for additional info
Sample ID,Montmorillonite_swy1.14701
Original Sample ID,
Sample Type,None
Viewing Geometry,
Wavelength,Response
1379.5,0.654811
1379.87,0.652713
1380.23,0.649235
1380.6,0.647799
1380.97,0.649842
1381.34,0.650947
1381.7,0.649566
1382.07,0.646198
1382.44,0.643493
1382.81,0.644432
1383.18,0.645757
1383.55,0.644597
1383.92,0.644211
1384.29,0.643603
1384.66,0.641892
1385.03,0.64134
1385.4,0.641781
1385.77,0.640953
1386.14,0.640015
1386.51,0.639628
1386.88,0.638855
1387.25,0.637475
1387.62,0.635322
1387.99,0.634107
1388.36,0.63361
1388.74,0.633224
1389.11,0.632616
1389.48,0.631622
1389.85,0.630629
1390.23,0.629359
1390.6,0.628034
1390.97,0.626985
1391.35,0.625328
1391.72,0.623065
1392.09,0.62058
1392.47,0.6192
1392.84,0.61931
1393.21,0.618427
1393.59,0.616715
1393.96,0.615556
1394.34,0.613292
1394.71,0.610642
1395.09,0.609096
1395.46,0.608213
1395.84,0.60617
1396.22,0.603961
1396.59,0.603575
1396.97,0.603188
1397.35,0.601919
1397.72,0.600097
1398.1,0.598385
1398.48,0.597005
1398.85,0.595293
1399.23,0.592698
1399.61,0.591263
1399.99,0.590103
1400.37,0.587453
1400.74,0.586018
1401.12,0.585189
1401.5,0.584416
1401.88,0.58392
1402.26,0.582815
1402.64,0.581104
1403.02,0.579392
1403.4,0.578288
1403.78,0.576466
1404.16,0.574313
1404.54,0.571773
1404.92,0.570669
1405.3,0.571055
1405.68,0.570282
1406.06,0.569344
1406.44,0.568405
1406.83,0.566804
1407.21,0.565865
1407.59,0.565644
1407.97,0.565203
1408.35,0.564209
1408.74,0.562773
1409.12,0.561504
1409.5,0.561172
1409.89,0.561283
1410.27,0.561393
1410.65,0.561117
1411.04,0.560786
1411.42,0.56062
1411.81,0.560344
1412.19,0.560178
1412.58,0.560068
1412.96,0.560068
1413.35,0.559958
1413.73,0.559737
1414.12,0.560178
1414.5,0.560896
1414.89,0.561007
1415.28,0.561172
1415.66,0.561614
1416.05,0.562553
1416.44,0.563326
1416.82,0.563657
1417.21,0.564154
1417.6,0.564816
1417.98,0.5657
1418.37,0.566417
1418.76,0.566417
1419.15,0.566859
1419.54,0.568295
1419.93,0.569454
1420.32,0.570227
1420.71,0.571221
1421.09,0.57238
1421.48,0.573208
1421.88,0.574092
1422.27,0.575086
1422.66,0.576079
1423.05,0.577018
1423.44,0.577681
1423.83,0.578454
1424.22,0.579337
1424.61,0.580331
1425.0,0.58138
1425.39,0.582539
1425.78,0.583202
1426.18,0.58392
1426.57,0.584748
1426.96,0.585355
1427.36,0.586183
1427.75,0.587398
1428.14,0.588392
1428.54,0.589054
1428.93,0.589551
1429.32,0.589938
1429.72,0.590821
1430.11,0.591815
1430.51,0.592422
1430.9,0.592974
1431.3,0.593637
1431.69,0.594023
1432.09,0.59441
1432.48,0.594796
1432.88,0.595845
1433.28,0.596177
1433.67,0.596453
1434.07,0.59706
1434.46,0.597723
1434.86,0.598275
1435.26,0.599048
1435.66,0.599434
1436.05,0.599379
1436.45,0.600097
1436.85,0.600814
1437.25,0.60087
1437.65,0.60109
1438.05,0.601753
1438.44,0.602084
1438.84,0.602416
1439.24,0.602636
1439.64,0.603023
1440.04,0.603133
1440.44,0.603464
1440.84,0.603464
1441.24,0.603906
1441.65,0.604679
1442.05,0.6049
1442.45,0.60501
1442.85,0.605231
1443.25,0.605286
1443.65,0.605121
1444.05,0.604955
1444.46,0.605066
1444.86,0.605066
1445.26,0.60501
1445.67,0.605507
1446.07,0.605728
1446.47,0.605397
1446.88,0.605563
1447.28,0.605839
1447.68,0.60617
1448.09,0.60617
1448.49,0.60617
1448.9,0.60628
1449.3,0.606446
1449.71,0.606059
1450.11,0.605728
1450.52,0.605618
1450.93,0.605563
1451.33,0.605949
1451.74,0.606391
1452.14,0.606059
1452.55,0.605894
1452.96,0.606225
1453.36,0.60628
1453.77,0.606115
1454.18,0.606004
1454.59,0.605894
1455.0,0.606115
1455.41,0.605894
1455.81,0.605452
1456.22,0.605397
1456.63,0.605286
1457.04,0.60501
1457.45,0.60479
1457.86,0.605066
1458.27,0.605066
1458.68,0.604624
1459.09,0.604734
1459.5,0.605066
1459.91,0.60479
1460.32,0.604182
1460.74,0.604182
1461.15,0.604624
1461.56,0.604348
1461.97,0.603906
1462.39,0.604293
1462.8,0.604072
1463.21,0.603961
1463.62,0.603741
1464.04,0.603409
1464.45,0.60352
1464.86,0.603409
1465.28,0.603685
1465.69,0.603741
1466.11,0.603575
1466.52,0.603409
1466.94,0.603133
1467.35,0.603078
1467.77,0.603299
1468.18,0.603299
1468.6,0.603575
1469.02,0.603851
1469.43,0.603685
1469.85,0.60352
1470.27,0.603685
1470.68,0.603796
1471.1,0.604237
1471.52,0.604514
1471.94,0.604514
1472.35,0.604679
1472.77,0.604514
1473.19,0.604624
1473.61,0.604679
1474.03,0.604569
1474.45,0.604514
1474.87,0.604679
1475.29,0.604845
1475.71,0.605121
1476.13,0.605231
1476.55,0.605176
1476.97,0.605176
1477.39,0.605507
1477.81,0.605673
1478.23,0.605894
1478.65,0.605894
1479.07,0.605783
1479.5,0.605673
1479.92,0.606004
1480.34,0.60628
1480.76,0.606391
1481.19,0.606336
1481.61,0.606336
1482.03,0.606391
1482.46,0.606391
1482.88,0.606667
1483.31,0.607108
1483.73,0.607219
1484.16,0.60744
1484.58,0.607385
1485.01,0.607329
1485.43,0.607329
1485.86,0.607495
1486.28,0.607771
1486.71,0.607937
1487.14,0.607937
1487.56,0.607826
1487.99,0.607937
1488.42,0.607992
1488.84,0.608378
1489.27,0.60882
1489.7,0.60893
1490.13,0.608765
1490.56,0.60871
1490.98,0.608654
1491.41,0.609041
1491.84,0.609317
1492.27,0.609427
1492.7,0.609483
1493.13,0.609372
1493.56,0.609372
1493.99,0.609869
1494.42,0.610145
1494.85,0.610311
1495.29,0.610145
1495.72,0.6102
1496.15,0.610476
1496.58,0.610421
1497.01,0.610366
1497.44,0.610311
1497.88,0.610421
1498.31,0.610752
1498.74,0.611084
1499.18,0.611084
1499.61,0.611028
1500.04,0.610973
1500.48,0.610973
1500.91,0.611194
1501.35,0.611415
1501.78,0.611525
1502.22,0.611525
1502.65,0.611636
1503.09,0.612078
1503.53,0.612078
1503.96,0.611967
1504.4,0.612519
1504.83,0.612574
1505.27,0.612795
1505.71,0.612961
1506.15,0.613127
1506.58,0.613127
1507.02,0.613016
1507.46,0.613182
1507.9,0.613071
1508.34,0.613016
1508.78,0.613127
1509.21,0.613237
1509.66,0.613513
1510.09,0.613623
1510.53,0.613513
1510.97,0.613844
1511.42,0.614176
1511.86,0.614176
1512.3,0.614231
1512.74,0.614286
1513.18,0.614452
1513.62,0.614452
1514.06,0.614562
1514.51,0.614783
1514.95,0.614838
1515.39,0.615004
1515.83,0.614783
1516.28,0.614783
1516.72,0.615335
1517.16,0.615169
1517.61,0.615059
1518.05,0.61528
1518.5,0.615556
1518.94,0.615777
1519.39,0.615722
1519.83,0.615998
1520.28,0.616384
1520.73,0.616329
1521.17,0.616163
1521.62,0.616218
1522.07,0.616274
1522.51,0.616384
1522.96,0.616771
1523.41,0.617102
1523.85,0.617212
1524.3,0.617102
1524.75,0.617102
1525.2,0.617047
1525.65,0.617102
1526.1,0.617102
1526.55,0.617323
1527.0,0.617543
1527.45,0.617654
1527.9,0.617488
1528.35,0.61804
1528.8,0.61804
1529.25,0.61793
1529.7,0.618096
1530.15,0.618206
1530.6,0.618482
1531.05,0.618593
1531.51,0.618813
1531.96,0.619145
1532.41,0.619476
1532.87,0.619421
1533.32,0.619034
1533.77,0.619089
1534.23,0.619421
1534.68,0.619918
1535.14,0.620028
1535.59,0.619918
1536.05,0.620138
1536.5,0.620194
1536.96,0.62047
1537.41,0.620635
1537.87,0.620691
1538.32,0.620911
1538.78,0.621132
1539.24,0.621243
1539.7,0.621187
1540.15,0.621298
1540.61,0.621519
1541.07,0.621795
1541.53,0.622126
1541.98,0.622237
1542.44,0.622457
1542.9,0.622457
1543.36,0.622513
1543.82,0.622733
1544.28,0.622899
1544.74,0.623065
1545.2,0.623396
1545.66,0.623396
1546.12,0.623451
1546.59,0.623617
1547.05,0.624114
1547.51,0.624114
1547.97,0.624003
1548.43,0.624445
1548.9,0.624776
1549.36,0.624776
1549.82,0.624831
1550.29,0.624997
1550.75,0.625218
1551.21,0.625439
1551.68,0.625494
1552.14,0.62566
1552.61,0.625991
1553.07,0.626267
1553.54,0.626101
1554.0,0.626101
1554.47,0.626488
1554.93,0.626653
1555.4,0.627316
1555.87,0.627482
1556.34,0.627426
1556.8,0.627537
1557.27,0.627702
1557.74,0.627923
1558.21,0.628144
1558.68,0.62831
1559.14,0.628531
1559.61,0.628807
1560.08,0.628586
1560.55,0.628641
1561.02,0.628751
1561.49,0.629193
1561.96,0.629524
1562.43,0.629524
1562.9,0.629469
1563.38,0.629745
1563.85,0.629911
1564.32,0.630408
1564.79,0.630684
1565.26,0.630463
1565.74,0.630518
1566.21,0.630849
1566.68,0.630905
1567.16,0.630794
1567.63,0.631126
1568.1,0.631346
1568.58,0.631236
1569.05,0.631402
1569.53,0.631622
1570.0,0.631899
1570.48,0.632064
1570.96,0.632285
1571.43,0.632395
1571.91,0.632837
1572.39,0.632671
1572.86,0.632948
1573.34,0.633113
1573.82,0.633279
1574.3,0.6335
1574.77,0.63361
1575.25,0.633665
1575.73,0.633831
1576.21,0.633886
1576.69,0.634328
1577.17,0.634494
1577.65,0.634714
1578.13,0.634825
1578.61,0.634714
1579.09,0.634659
1579.57,0.634935
1580.05,0.635266
1580.54,0.635101
1581.02,0.635101
1581.5,0.635543
1581.98,0.635763
1582.47,0.635763
1582.95,0.635929
1583.43,0.63626
1583.92,0.636371
1584.4,0.636536
1584.88,0.636647
1585.37,0.636702
1585.85,0.636757
1586.34,0.637199
1586.82,0.637365
1587.31,0.63742
1587.8,0.63753
1588.28,0.63753
1588.77,0.637641
1589.26,0.638027
1589.74,0.638358
1590.23,0.638414
1590.72,0.638469
1591.21,0.638745
1591.7,0.639076
1592.19,0.639352
1592.67,0.639407
1593.16,0.639407
1593.65,0.639352
1594.14,0.639407
1594.63,0.639518
1595.12,0.639739
1595.61,0.639959
1596.11,0.639904
1596.6,0.64018
1597.09,0.640567
1597.58,0.640898
1598.08,0.641008
1598.57,0.641229
1599.06,0.641395
1599.55,0.641561
1600.05,0.641671
1600.54,0.641781
1601.04,0.642002
1601.53,0.642334
1602.03,0.642389
1602.52,0.642444
1603.02,0.642334
1603.51,0.642499
1604.01,0.642996
1604.5,0.643383
1605.0,0.643383
1605.5,0.643383
1606.0,0.643714
1606.49,0.644211
1606.99,0.644376
1607.49,0.644542
1607.99,0.644763
1608.49,0.645039
1608.99,0.644928
1609.49,0.644873
1609.99,0.645149
1610.49,0.645315
1610.99,0.645591
1611.49,0.645922
1611.99,0.645867
1612.49,0.645922
1612.99,0.646309
1613.49,0.64664
1614.0,0.646806
1614.5,0.647027
1615.0,0.647027
1615.51,0.647137
1616.01,0.647413
1616.51,0.647523
1617.02,0.647634
1617.52,0.647965
1618.03,0.648131
1618.53,0.648186
1619.04,0.648241
1619.54,0.648517
1620.05,0.648738
1620.55,0.64918
1621.06,0.649345
1621.57,0.64929
1622.08,0.649456
1622.58,0.649621
1623.09,0.650008
1623.6,0.65045
1624.11,0.650394
1624.62,0.650505
1625.13,0.650615
1625.64,0.650671
1626.15,0.650891
1626.66,0.651223
1627.17,0.651444
1627.68,0.651554
1628.19,0.651554
1628.7,0.651554
1629.21,0.65183
1629.72,0.652272
1630.24,0.652382
1630.75,0.652437
1631.26,0.652658
1631.78,0.652713
1632.29,0.652934
1632.8,0.653376
1633.32,0.653376
1633.83,0.653486
1634.35,0.653597
1634.86,0.653431
1635.38,0.653762
1635.9,0.654038
1636.41,0.654204
1636.93,0.654204
1637.45,0.654646
1637.96,0.654867
1638.48,0.654977
1639.0,0.655143
1639.52,0.655143
1640.04,0.655474
1640.56,0.655695
1641.08,0.655916
1641.59,0.655805
1642.11,0.655805
1642.63,0.655805
1643.16,0.655916
1643.68,0.656357
1644.2,0.656523
1644.72,0.656578
1645.24,0.656689
1645.76,0.656909
1646.29,0.656965
1646.81,0.657075
1647.33,0.65713
1647.86,0.657517
1648.38,0.657738
1648.9,0.657959
1649.43,0.658124
1649.95,0.658235
1650.48,0.6584
1651.0,0.658345
1651.53,0.658511
1652.06,0.658345
1652.58,0.658566
1653.11,0.658787
1653.64,0.659063
1654.17,0.659173
1654.69,0.659228
1655.22,0.659394
1655.75,0.659394
1656.28,0.659449
1656.81,0.660001
1657.34,0.660112
1657.87,0.660112
1658.4,0.660222
1658.93,0.660553
1659.46,0.660664
1659.99,0.660719
1660.52,0.660829
1661.05,0.660995
1661.59,0.661271
1662.12,0.661161
1662.65,0.661326
1663.19,0.661602
1663.72,0.661934
1664.26,0.662099
1664.79,0.662155
1665.32,0.662099
1665.86,0.662265
1666.39,0.662486
1666.93,0.662375
1667.47,0.662541
1668.0,0.662872
1668.54,0.663038
1669.08,0.663093
1669.61,0.663424
1670.15,0.663645
1670.69,0.663645
1671.23,0.664032
1671.77,0.664308
1672.31,0.664363
1672.85,0.664197
1673.39,0.664197
1673.93,0.66475
1674.47,0.66497
1675.01,0.665026
1675.55,0.665246
1676.09,0.665191
1676.64,0.665302
1677.18,0.665523
1677.72,0.665743
1678.26,0.665688
1678.81,0.666019
1679.35,0.666075
1679.89,0.666075
1680.44,0.666185
1680.98,0.666571
1681.53,0.666958
1682.07,0.666848
1682.62,0.667124
1683.17,0.6674
1683.71,0.667676
1684.26,0.667676
1684.81,0.667786
1685.36,0.667786
1685.9,0.667952
1686.45,0.668062
1687.0,0.668062
1687.55,0.667952
1688.1,0.668449
1688.65,0.66867
1689.2,0.66867
1689.75,0.668835
1690.3,0.66889
1690.85,0.669111
1691.41,0.669443
1691.96,0.669663
1692.51,0.669663
1693.06,0.669829
1693.61,0.670105
1694.17,0.67005
1694.72,0.669884
1695.28,0.670216
1695.83,0.670492
1696.39,0.670712
1696.94,0.670712
1697.5,0.670878
1698.05,0.670933
1698.61,0.670878
1699.17,0.671154
1699.72,0.671265
1700.28,0.671485
1700.84,0.671872
1701.4,0.672148
1701.95,0.672148
1702.51,0.671872
1703.07,0.671927
1703.63,0.672314
1704.19,0.672424
1704.75,0.672314
1705.31,0.672203
1705.88,0.672314
1706.44,0.672645
1707.0,0.672921
1707.56,0.673031
1708.12,0.672976
1708.69,0.672921
1709.25,0.673087
1709.81,0.673197
1710.38,0.673252
1710.94,0.673418
1711.51,0.673639
1712.07,0.673694
1712.64,0.673915
1713.2,0.674025
1713.77,0.674025
1714.34,0.673859
1714.9,0.674025
1715.47,0.674522
1716.04,0.674688
1716.61,0.674577
1717.18,0.674632
1717.74,0.674743
1718.31,0.674853
1718.88,0.675019
1719.45,0.674964
1720.02,0.675074
1720.59,0.675074
1721.17,0.674964
1721.74,0.675185
1722.31,0.675461
1722.88,0.675626
1723.45,0.675737
1724.03,0.675626
1724.6,0.675626
1725.18,0.675958
1725.75,0.676178
1726.33,0.676013
1726.9,0.675902
1727.48,0.675958
1728.05,0.676013
1728.63,0.676234
1729.2,0.676399
1729.78,0.676344
1730.36,0.676399
1730.94,0.676454
1731.51,0.676565
1732.09,0.676786
1732.67,0.676951
1733.25,0.676951
1733.83,0.676786
1734.41,0.676841
1734.99,0.677007
1735.57,0.677117
1736.15,0.677117
1736.73,0.677338
1737.32,0.677559
1737.9,0.677614
1738.48,0.677724
1739.07,0.677724
1739.65,0.677724
1740.23,0.678056
1740.82,0.678332
1741.4,0.678497
1741.99,0.678387
1742.57,0.678387
1743.16,0.678718
1743.74,0.678718
1744.33,0.678829
1744.92,0.678939
1745.51,0.678994
1746.09,0.678994
1746.68,0.679105
1747.27,0.679325
1747.86,0.679381
1748.45,0.67927
1749.04,0.67927
1749.63,0.679381
1750.22,0.679712
1750.81,0.679933
1751.4,0.679878
1751.99,0.679988
1752.59,0.680209
1753.18,0.680374
1753.77,0.68043
1754.37,0.68054
1754.96,0.680485
1755.56,0.68054
1756.15,0.680706
1756.74,0.680706
1757.34,0.680706
1757.94,0.680816
1758.53,0.680982
1759.13,0.681037
1759.73,0.681092
1760.32,0.681092
1760.92,0.681258
1761.52,0.681313
1762.12,0.681644
1762.72,0.681865
1763.32,0.681755
1763.92,0.68181
1764.52,0.681865
1765.12,0.68192
1765.72,0.681976
1766.32,0.682141
1766.92,0.682252
1767.53,0.682417
1768.13,0.682362
1768.73,0.682417
1769.34,0.682473
1769.94,0.682528
1770.55,0.682638
1771.15,0.682969
1771.76,0.683025
1772.36,0.682969
1772.97,0.683025
1773.57,0.683135
1774.18,0.68319
1774.79,0.683411
1775.4,0.683577
1776.0,0.683522
1776.61,0.683466
1777.22,0.683577
1777.83,0.683577
1778.44,0.683522
1779.05,0.683301
1779.66,0.683411
1780.27,0.683687
1780.88,0.683687
1781.5,0.683742
1782.11,0.683853
1782.72,0.683798
1783.33,0.683742
1783.95,0.683853
1784.56,0.683798
1785.18,0.683908
1785.79,0.684129
1786.41,0.683908
1787.02,0.684018
1787.64,0.684184
1788.26,0.684184
1788.87,0.684018
1789.49,0.684239
1790.11,0.684129
1790.73,0.684239
1791.35,0.684295
1791.96,0.684184
1792.58,0.684129
1793.21,0.684074
1793.83,0.683963
1794.45,0.684239
1795.07,0.68446
1795.69,0.68446
1796.31,0.684405
1796.93,0.684681
1797.56,0.684405
1798.18,0.684295
1798.8,0.684295
1799.43,0.684184
1800.05,0.684295
1800.68,0.684184
1801.3,0.684239
1801.93,0.684239
1802.56,0.684239
1803.18,0.68446
1803.81,0.684626
1804.44,0.684626
1805.07,0.68435
1805.7,0.683963
1806.33,0.684074
1806.95,0.684405
1807.58,0.684515
1808.22,0.684681
1808.85,0.684681
1809.48,0.684736
1810.11,0.684405
1810.74,0.684074
1811.38,0.68446
1812.01,0.684626
1812.64,0.684295
1813.28,0.684626
1813.91,0.684902
1814.55,0.68446
1815.18,0.683687
1815.82,0.684074
1816.45,0.68446
1817.09,0.684736
1817.73,0.684847
1818.36,0.684736
1819.0,0.684902
1819.64,0.683798
1820.28,0.682473
1820.92,0.683356
1821.56,0.683632
1822.2,0.684018
1822.84,0.684902
1823.48,0.685454
1824.12,0.685454
1824.76,0.685509
1825.41,0.683853
1826.05,0.68192
1826.69,0.683908
1827.34,0.685454
1827.98,0.684515
1828.63,0.684129
1829.27,0.68435
1829.92,0.684184
1830.56,0.68308
1831.21,0.683245
1831.86,0.684405
1832.5,0.684626
1833.15,0.685123
1833.8,0.685344
1834.45,0.684018
1835.1,0.683245
1835.75,0.681976
1836.4,0.681976
1837.05,0.682252
1837.7,0.682086
1838.35,0.684295
1839.01,0.683466
1839.66,0.681423
1840.31,0.68308
1840.96,0.682914
1841.62,0.68043
1842.27,0.682473
1842.93,0.684902
1843.58,0.685399
1844.24,0.685454
1844.9,0.685509
1845.55,0.685067
1846.21,0.682362
1846.87,0.679712
1847.53,0.680595
1848.18,0.681534
1848.84,0.683853
1849.5,0.684681
1850.16,0.68446
1850.82,0.684681
1851.48,0.685012
1852.14,0.684295
1852.81,0.682528
1853.47,0.680374
1854.13,0.681534
1854.8,0.684295
1855.46,0.684018
1856.12,0.68181
1856.79,0.681644
1857.45,0.683356
1858.12,0.683963
1858.79,0.682086
1859.45,0.678994
1860.12,0.679878
1860.79,0.681644
1861.46,0.682638
1862.12,0.682528
1862.79,0.682031
1863.46,0.681037
1864.13,0.680319
1864.8,0.68054
1865.48,0.68054
1866.15,0.680043
1866.82,0.677669
1867.49,0.674356
1868.16,0.675129
1868.84,0.676344
1869.51,0.675405
1870.19,0.671872
1870.86,0.669387
1871.54,0.672258
1872.21,0.670988
1872.89,0.667345
1873.56,0.668338
1874.24,0.669608
1874.92,0.668559
1875.6,0.667621
1876.28,0.665467
1876.96,0.663535
1877.64,0.664197
1878.32,0.663756
1879.0,0.662265
1879.68,0.660553
1880.36,0.658621
1881.04,0.656799
1881.73,0.655308
1882.41,0.65321
1883.09,0.650063
1883.78,0.646474
1884.46,0.645205
1885.15,0.643603
1885.83,0.641008
1886.52,0.638082
1887.21,0.635598
1887.89,0.633058
1888.58,0.630242
1889.27,0.625991
1889.96,0.621298
1890.65,0.619089
1891.34,0.616108
1892.03,0.612188
1892.72,0.609041
1893.41,0.605231
1894.1,0.601698
1894.79,0.598275
1895.49,0.594741
1896.18,0.591263
1896.87,0.587343
1897.57,0.583312
1898.26,0.579834
1898.96,0.574975
1899.65,0.571442
1900.35,0.570724
1901.05,0.570006
1901.74,0.568019
1902.44,0.56454
1903.14,0.563657
1903.84,0.564319
1904.54,0.562221
1905.24,0.560675
1905.94,0.561669
1906.64,0.562442
1907.34,0.564264
1908.04,0.56581
1908.75,0.566914
1909.45,0.568184
1910.15,0.569454
1910.86,0.570558
1911.56,0.572159
1912.27,0.574313
1912.97,0.57503
1913.68,0.576852
1914.39,0.580496
1915.09,0.582926
1915.8,0.584748
1916.51,0.587122
1917.22,0.589717
1917.93,0.59187
1918.64,0.593416
1919.35,0.593802
1920.06,0.594078
1920.77,0.596839
1921.48,0.60109
1922.19,0.603575
1922.91,0.605121
1923.62,0.606115
1924.33,0.608268
1925.05,0.610697
1925.76,0.612354
1926.48,0.613347
1927.19,0.614617
1927.91,0.615611
1928.63,0.616991
1929.35,0.619034
1930.07,0.620249
1930.78,0.621463
1931.5,0.622733
1932.22,0.623838
1932.94,0.624942
1933.66,0.62577
1934.39,0.62704
1935.11,0.628199
1935.83,0.628586
1936.55,0.629304
1937.28,0.630629
1938.0,0.631622
1938.73,0.632285
1939.45,0.632948
1940.18,0.633997
1940.9,0.63477
1941.63,0.635653
1942.36,0.636426
1943.09,0.636978
1943.81,0.63753
1944.54,0.638193
1945.27,0.639187
1946.0,0.639904
1946.73,0.640677
1947.47,0.64134
1948.2,0.641671
1948.93,0.642002
1949.66,0.64272
1950.4,0.643383
1951.13,0.644045
1951.86,0.644708
1952.6,0.645205
1953.34,0.645757
1954.07,0.646419
1954.81,0.64664
1955.55,0.647082
1956.29,0.647689
1957.02,0.648186
1957.76,0.648628
1958.5,0.649125
1959.24,0.649511
1959.98,0.650008
1960.72,0.65045
1961.47,0.650836
1962.21,0.651223
1962.95,0.651388
1963.7,0.651664
1964.44,0.652161
1965.18,0.652713
1965.93,0.653155
1966.67,0.653431
1967.42,0.653707
1968.17,0.654149
1968.92,0.654535
1969.66,0.654756
1970.41,0.655032
1971.16,0.655143
1971.91,0.655695
1972.66,0.656192
1973.41,0.656689
1974.16,0.65713
1974.92,0.657462
1975.67,0.657793
1976.42,0.658014
1977.18,0.65829
1977.93,0.658731
1978.69,0.659063
1979.44,0.659118
1980.2,0.659394
1980.95,0.659836
1981.71,0.660222
1982.47,0.660498
1983.23,0.66105
1983.99,0.661382
1984.74,0.661602
1985.51,0.661823
1986.27,0.662099
1987.03,0.662486
1987.79,0.662928
1988.55,0.663259
1989.32,0.663535
1990.08,0.663811
1990.84,0.664197
1991.61,0.664473
1992.37,0.665026
1993.14,0.665467
1993.9,0.665523
1994.67,0.665743
1995.44,0.666075
1996.21,0.666682
1996.98,0.666958
1997.75,0.667179
1998.52,0.667345
1999.29,0.6674
2000.06,0.668007
2000.83,0.668393
2001.6,0.668614
2002.38,0.66878
2003.15,0.669167
2003.93,0.669663
2004.7,0.67016
2005.48,0.670326
2006.25,0.670547
2007.03,0.670933
2007.81,0.67132
2008.58,0.671872
2009.36,0.672038
2010.14,0.672148
2010.92,0.672479
2011.7,0.672921
2012.48,0.673363
2013.26,0.673528
2014.05,0.673528
2014.83,0.673915
2015.61,0.674246
2016.4,0.674412
2017.18,0.674632
2017.97,0.675074
2018.75,0.67524
2019.54,0.675571
2020.32,0.675902
2021.11,0.676068
2021.9,0.67651
2022.69,0.676951
2023.48,0.677007
2024.27,0.677172
2025.06,0.677338
2025.85,0.67778
2026.64,0.677945
2027.44,0.678
2028.23,0.678166
2029.02,0.678497
2029.82,0.678773
2030.61,0.678884
2031.41,0.678939
2032.2,0.679049
2033.0,0.679215
2033.8,0.679546
2034.6,0.679602
2035.4,0.679712
2036.2,0.679933
2037.0,0.680209
2037.8,0.680374
2038.6,0.680374
2039.4,0.680374
2040.2,0.680485
2041.01,0.680871
2041.81,0.680816
2042.61,0.680595
2043.42,0.680816
2044.22,0.680871
2045.03,0.680761
2045.84,0.680816
2046.65,0.680761
2047.46,0.681037
2048.26,0.681037
2049.07,0.681037
2049.88,0.681092
2050.69,0.681092
2051.51,0.681092
2052.32,0.681037
2053.13,0.680982
2053.94,0.680927
2054.76,0.680871
2055.57,0.680278
2056.39,0.680656
2057.2,0.680817
2058.02,0.680871
2058.84,0.680332
2059.66,0.679955
2060.48,0.679685
2061.29,0.67947
2062.11,0.678931
2062.94,0.679254
2063.76,0.679524
2064.58,0.679308
2065.4,0.678984
2066.22,0.679038
2067.05,0.678984
2067.87,0.678284
2068.7,0.678284
2069.52,0.678391
2070.35,0.677637
2071.18,0.67672
2072.0,0.676289
2072.83,0.676289
2073.66,0.676127
2074.49,0.675642
2075.32,0.675642
2076.15,0.675911
2076.98,0.675696
2077.82,0.675534
2078.65,0.675049
2079.48,0.674402
2080.32,0.674348
2081.15,0.674564
2081.99,0.674024
2082.83,0.67327
2083.66,0.672838
2084.5,0.672784
2085.34,0.672946
2086.18,0.672569
2087.02,0.672245
2087.86,0.672353
2088.7,0.672515
2089.54,0.671922
2090.39,0.671329
2091.23,0.671598
2092.07,0.671598
2092.92,0.671437
2093.76,0.67149
2094.61,0.671383
2095.45,0.671005
2096.3,0.671113
2097.15,0.671167
2098.0,0.671167
2098.85,0.671059
2099.7,0.670574
2100.55,0.670035
2101.4,0.670143
2102.25,0.669927
2103.1,0.669657
2103.96,0.670089
2104.81,0.670035
2105.67,0.670143
2106.52,0.669927
2107.38,0.669442
2108.24,0.669604
2109.09,0.670197
2109.95,0.670089
2110.81,0.669927
2111.67,0.670089
2112.53,0.670251
2113.39,0.670304
2114.25,0.670143
2115.12,0.669873
2115.98,0.669765
2116.84,0.669765
2117.71,0.669927
2118.58,0.669657
2119.44,0.669981
2120.31,0.669657
2121.18,0.668741
2122.04,0.66831
2122.91,0.668687
2123.78,0.669118
2124.65,0.669172
2125.52,0.668633
2126.4,0.668148
2127.27,0.668417
2128.14,0.668202
2129.02,0.667986
2129.89,0.667878
2130.77,0.667447
2131.64,0.666854
2132.52,0.6668
2133.4,0.666692
2134.27,0.666261
2135.15,0.66529
2136.03,0.664751
2136.91,0.664913
2137.79,0.664967
2138.68,0.664158
2139.56,0.663457
2140.44,0.663457
2141.33,0.663457
2142.21,0.663296
2143.1,0.662433
2143.99,0.661409
2144.87,0.660762
2145.76,0.660546
2146.65,0.660169
2147.54,0.65963
2148.43,0.658929
2149.32,0.658336
2150.21,0.657635
2151.1,0.656934
2151.99,0.656664
2152.89,0.656179
2153.78,0.655209
2154.68,0.65467
2155.57,0.654076
2156.47,0.65289
2157.37,0.651596
2158.27,0.65095
2159.16,0.649494
2160.06,0.647391
2160.96,0.645343
2161.86,0.643779
2162.77,0.642485
2163.67,0.640544
2164.57,0.63801
2165.48,0.636123
2166.38,0.633697
2167.29,0.630894
2168.2,0.627713
2169.1,0.624802
2170.01,0.621567
2170.92,0.618925
2171.83,0.616283
2172.74,0.613372
2173.65,0.610029
2174.56,0.607334
2175.47,0.60453
2176.39,0.601781
2177.3,0.598707
2178.22,0.595581
2179.13,0.592561
2180.05,0.58992
2180.96,0.587062
2181.88,0.583989
2182.8,0.581024
2183.72,0.577951
2184.64,0.57504
2185.56,0.572128
2186.48,0.569433
2187.41,0.567006
2188.33,0.564419
2189.25,0.562154
2190.18,0.559998
2191.1,0.55741
2192.03,0.55493
2192.96,0.552612
2193.89,0.550886
2194.82,0.548622
2195.74,0.546142
2196.68,0.544255
2197.61,0.542692
2198.54,0.541505
2199.47,0.540104
2200.4,0.53881
2201.34,0.537624
2202.28,0.536707
2203.21,0.535791
2204.15,0.535036
2205.08,0.534605
2206.02,0.53385
2206.96,0.533904
2207.9,0.534065
2208.84,0.534712
2209.78,0.535413
2210.73,0.53633
2211.67,0.537408
2212.61,0.538486
2213.56,0.539942
2214.5,0.541721
2215.45,0.543608
2216.4,0.545279
2217.35,0.547598
2218.3,0.54997
2219.24,0.551803
2220.2,0.553259
2221.15,0.55493
2222.1,0.55714
2223.05,0.558812
2224.0,0.561076
2224.96,0.562855
2225.91,0.56388
2226.87,0.565443
2227.83,0.567222
2228.79,0.568732
2229.74,0.569486
2230.7,0.570673
2231.66,0.572344
2232.63,0.573422
2233.59,0.57477
2234.55,0.575902
2235.51,0.576819
2236.48,0.578113
2237.44,0.579784
2238.41,0.58097
2239.38,0.58221
2240.34,0.583989
2241.31,0.58566
2242.28,0.587655
2243.25,0.589327
2244.22,0.591483
2245.19,0.594017
2246.17,0.595742
2247.14,0.597252
2248.12,0.599139
2249.09,0.601403
2250.07,0.603398
2251.04,0.604746
2252.02,0.606363
2253.0,0.607981
2253.98,0.609598
2254.96,0.611161
2255.94,0.612186
2256.92,0.613534
2257.91,0.614774
2258.89,0.616229
2259.88,0.6172
2260.86,0.617901
2261.85,0.618548
2262.83,0.618871
2263.82,0.619195
2264.81,0.619734
2265.8,0.619842
2266.79,0.620381
2267.78,0.620812
2268.78,0.621567
2269.77,0.621675
2270.76,0.621351
2271.76,0.621675
2272.75,0.62189
2273.75,0.621621
2274.75,0.621028
2275.75,0.620974
2276.75,0.620974
2277.75,0.620273
2278.75,0.619626
2279.75,0.619249
2280.75,0.618871
2281.76,0.618871
2282.76,0.618278
2283.77,0.617362
2284.77,0.616391
2285.78,0.61596
2286.79,0.615636
2287.8,0.614989
2288.81,0.614181
2289.82,0.613426
2290.83,0.612509
2291.84,0.611269
2292.86,0.610137
2293.87,0.609328
2294.89,0.608843
2295.91,0.607657
2296.92,0.606579
2297.94,0.605932
2298.96,0.6048
2299.98,0.603506
2301.0,0.602697
2302.02,0.60205
2303.04,0.601134
2304.07,0.600163
2305.09,0.599085
2306.12,0.598222
2307.15,0.597252
2308.17,0.596174
2309.2,0.595634
2310.23,0.594772
2311.26,0.59337
2312.29,0.592022
2313.32,0.591267
2314.35,0.590621
2315.39,0.589974
2316.42,0.588841
2317.46,0.587601
2318.5,0.5869
2319.53,0.586523
2320.57,0.585714
2321.61,0.584906
2322.65,0.584043
2323.69,0.58318
2324.73,0.582318
2325.78,0.58124
2326.82,0.580593
2327.86,0.58
2328.91,0.579083
2329.96,0.578328
2331.01,0.57725
2332.05,0.575956
2333.1,0.574824
2334.15,0.573746
2335.21,0.572829
2336.26,0.571643
2337.31,0.570349
2338.36,0.56884
2339.42,0.567815
2340.48,0.566953
2341.53,0.565659
2342.59,0.564257
2343.65,0.563125
2344.71,0.561993
2345.77,0.56086
2346.83,0.560106
2347.9,0.55962
2348.96,0.558542
2350.02,0.557518
2351.09,0.556709
2352.16,0.555631
2353.23,0.554876
2354.29,0.553852
2355.36,0.552827
2356.43,0.552234
2357.51,0.551426
2358.58,0.550455
2359.65,0.550024
2360.73,0.549431
2361.8,0.548892
2362.88,0.548352
2363.96,0.547652
2365.03,0.547112
2366.11,0.546519
2367.19,0.545873
2368.27,0.545387
2369.36,0.545279
2370.44,0.544848
2371.53,0.544525
2372.61,0.544255
2373.7,0.543608
2374.78,0.542853
2375.87,0.542206
2376.96,0.541937
2378.05,0.541667
2379.14,0.541182
2380.24,0.540589
2381.33,0.539888
2382.42,0.539511
2383.52,0.539025
2384.61,0.538486
2385.71,0.537893
2386.81,0.537408
2387.91,0.536923
2389.01,0.536492
2390.11,0.535952
2391.22,0.535521
2392.32,0.535413
2393.42,0.534928
2394.53,0.534281
2395.64,0.534012
2396.74,0.533688
2397.85,0.533149
2398.96,0.532772
2400.07,0.532232
2401.18,0.531909
2402.3,0.531693
2403.41,0.531208
2404.52,0.530992
2405.64,0.530291
2406.76,0.529698
2407.88,0.529644
2408.99,0.529213
2410.11,0.528512
2411.23,0.527758
2412.36,0.52765
2413.48,0.527326
2414.6,0.526464
2415.73,0.526032
2416.85,0.525547
2417.98,0.524792
2419.11,0.52393
2420.24,0.523822
2421.37,0.523498
2422.5,0.522905
2423.64,0.522043
2424.77,0.521342
2425.9,0.521126
2427.04,0.520479
2428.18,0.519671
2429.31,0.518862
2430.45,0.517945
2431.59,0.517137
2432.73,0.516544
2433.88,0.515951
2435.02,0.515088
2436.16,0.514279
2437.31,0.513632
2438.45,0.513039
2439.6,0.512446
2440.75,0.511691
2441.9,0.511152
2443.05,0.510829
2444.2,0.510182
2445.35,0.509643
2446.51,0.508996
2447.67,0.508618
2448.82,0.508349
2449.98,0.50781
2451.14,0.507917
2452.3,0.507648
2453.46,0.507217
2454.62,0.506947
2455.78,0.506839
2456.94,0.506462
2458.11,0.50603
2459.28,0.505815
2460.44,0.505384
2461.61,0.505222
2462.78,0.505006
2463.95,0.50479
2465.12,0.504575
2466.3,0.504521
2467.47,0.504521
2468.65,0.504467
2469.82,0.504413
2471.0,0.504629
2472.18,0.504467
2473.36,0.50479
2474.54,0.504898
2475.72,0.505114
2476.9,0.505384
2478.08,0.505114
2479.27,0.504898
2480.46,0.505006
2481.64,0.505384
2482.83,0.505006
2484.02,0.504467
2485.21,0.504305
2486.4,0.504144
2487.6,0.503928
2488.79,0.503658
2489.99,0.50355
2491.18,0.502904
2492.38,0.502364
2493.58,0.501664
2494.78,0.501286
2495.98,0.50107
2497.18,0.500585
2498.39,0.49983
2499.59,0.499184
2500.8,0.498429
2502.01,0.497458
2503.21,0.496704
2504.42,0.49638
2505.63,0.495841
2506.84,0.495302
2508.06,0.494601
2509.27,0.494008
2510.49,0.493523
2511.7,0.492876
2512.92,0.492121
2514.14,0.491366
2515.36,0.490935
2516.58,0.490503
2517.8,0.489749
2519.03,0.48921
2520.25,0.488778
2521.48,0.488293
2522.7,0.487592
2523.93,0.487053
2525.16,0.486676
2526.39,0.486029
2527.62,0.485328
2528.86,0.484789
2530.09,0.484088
2531.33,0.483279
2532.56,0.48247
2533.8,0.482309
2535.04,0.481608
2536.28,0.481069
2537.52,0.48123
2538.76,0.481015
2540.01,0.480691
2541.25,0.479829
2542.5,0.478265
2543.75,0.478211
2544.99,0.478535
2546.24,0.477942
2547.49,0.477025
2548.75,0.477403
2550.0,0.476756
2551.26,0.475677
2552.51,0.474869
2553.77,0.475893
2555.03,0.476486
2556.29,0.476109
2557.55,0.475462
2558.81,0.474168
2560.08,0.470825
2561.34,0.468183
2562.61,0.467536
2563.88,0.467752
2565.14,0.470286
2566.41,0.472335
2567.68,0.470987
2568.96,0.467968
2570.23,0.468237
2571.51,0.468884
2572.78,0.464895
2574.06,0.465596
2575.34,0.466512
2576.62,0.464841
2577.9,0.466081
2579.18,0.466728
2580.47,0.464463
2581.75,0.463439
2583.04,0.459234
2584.32,0.459288
2585.61,0.46139
2586.9,0.459288
2588.2,0.459503
2589.49,0.46042
2590.78,0.461013
2592.08,0.458317
2593.37,0.44802
2594.67,0.440688
2595.97,0.44802
2597.27,0.454975
2598.57,0.4567
2599.88,0.454813
2601.18,0.452063
2602.49,0.450176
2603.79,0.446402
2605.1,0.442089
2606.41,0.443976
2607.72,0.445863
2609.03,0.445324
2610.35,0.445162
2611.66,0.444839
2612.98,0.443707
2614.3,0.442682
2615.62,0.437453
2616.94,0.434703
2618.26,0.43659
2619.58,0.432762
2620.91,0.432601
2622.23,0.436213
2623.56,0.435997
2624.89,0.432816
2626.22,0.427802
2627.55,0.428557
2628.88,0.425484
2630.21,0.420254
2631.55,0.423112
2632.89,0.423759
2634.22,0.422573
2635.56,0.42268
2636.9,0.421441
2638.25,0.420147
2639.59,0.418475
2640.93,0.41648
2642.28,0.414647
2643.63,0.412922
2644.98,0.409849
2646.33,0.40834
2647.68,0.407854
2649.03,0.406399
2650.39,0.403272
2651.74,0.399228
2653.1,0.397611
2654.46,0.396209
2655.82,0.393945
2657.18,0.392435
2658.54,0.388338
2659.9,0.385157
2661.27,0.383
2662.64,0.379819
2664.01,0.371732
2665.38,0.364885
2666.74,0.362298
2668.12,0.361758
2669.49,0.352863
2670.87,0.348604
2672.24,0.350652
2673.62,0.346285
2675.0,0.338306
2676.38,0.32995
2677.76,0.324127
2679.15,0.31701
2680.54,0.310703
2681.92,0.300513
2683.31,0.286981
2684.7,0.272208
2686.09,0.255711
2687.48,0.238297
2688.88,0.220775
2690.27,0.203631
2691.67,0.186918
2693.07,0.171067
2694.47,0.158829
2695.87,0.149286
2697.27,0.140822
2698.67,0.133058
2700.08,0.126373
2701.49,0.12055
2702.9,0.115806
2704.31,0.111277
2705.72,0.10691
2707.13,0.102435
2708.54,0.097745
2709.96,0.092839
2711.38,0.088634
2712.8,0.085291
2714.22,0.081193
2715.64,0.076503
2717.06,0.071759
2718.49,0.066583
2719.91,0.061138
2721.34,0.057148
2722.77,0.053752
2724.2,0.04987
2725.63,0.046905
2727.07,0.044101
2728.5,0.041352
2729.94,0.039033
2731.38,0.037254
2732.82,0.035367
2734.26,0.033642
2735.7,0.032348
2737.15,0.031
2738.59,0.029598
2740.04,0.028466
2741.49,0.027711
2742.94,0.027172
2744.39,0.026471
2745.84,0.025878
2747.3,0.025609
2748.76,0.025393
2750.21,0.024962
2751.67,0.024854
2753.14,0.0248
2754.6,0.024638
2756.06,0.02507
2757.53,0.025932
2759.0,0.026471
2760.46,0.027064
2761.94,0.027604
2763.41,0.028304
2764.88,0.029221
2766.36,0.030084
2767.83,0.030946
2769.31,0.031971
2770.79,0.033211
2772.27,0.03472
2773.76,0.036176
2775.24,0.037739
2776.73,0.039465
2778.22,0.040974
2779.71,0.042592
2781.2,0.044371
2782.69,0.046527
2784.18,0.048738
2785.68,0.050463
2787.18,0.052404
2788.68,0.054992
2790.18,0.057364
2791.68,0.059628
2793.19,0.062
2794.69,0.064265
2796.2,0.066098
2797.71,0.0682
2799.22,0.070195
2800.73,0.072082
2802.24,0.073753
2803.76,0.075856
2805.28,0.077959
2806.8,0.079846
2808.32,0.081733
2809.84,0.083242
2811.36,0.084698
2812.89,0.0861
2814.42,0.08734
2815.94,0.088687
2817.48,0.089981
2819.01,0.091167
2820.54,0.0923
2822.08,0.093378
2823.61,0.09451
2825.15,0.095588
2826.69,0.096559
2828.23,0.097475
2829.78,0.09823
2831.32,0.098985
2832.87,0.09974
2834.42,0.100387
2835.97,0.10098
2837.52,0.101788
2839.08,0.102543
2840.63,0.103244
2842.19,0.103783
2843.75,0.104322
2845.31,0.104754
2846.87,0.105401
2848.44,0.105616
2850.0,0.106101
2851.57,0.106479
2853.14,0.106856
2854.71,0.107341
2856.28,0.107773
2857.86,0.107988
2859.43,0.108096
2861.01,0.108528
2862.59,0.108851
2864.17,0.108905
2865.76,0.109067
2867.34,0.109336
2868.93,0.109768
2870.52,0.109929
2872.11,0.110307
2873.7,0.110684
2875.29,0.110846
2876.89,0.1109
2878.49,0.111115
2880.08,0.111493
2881.69,0.111924
2883.29,0.112301
2884.89,0.112517
2886.5,0.112733
2888.11,0.112948
2889.72,0.11311
2891.33,0.113488
2892.94,0.113703
2894.56,0.113919
2896.17,0.114188
2897.79,0.114566
2899.42,0.114674
2901.04,0.114889
2902.66,0.115321
2904.29,0.115698
2905.92,0.115914
2907.55,0.116345
2909.18,0.116507
2910.81,0.116561
2912.45,0.11683
2914.08,0.117046
2915.72,0.117261
2917.36,0.117801
2919.01,0.118124
2920.65,0.118178
2922.3,0.118394
2923.94,0.118663
2925.59,0.118933
2927.25,0.119256
2928.9,0.119418
2930.56,0.119688
2932.21,0.119849
2933.87,0.120119
2935.53,0.120335
2937.2,0.120712
2938.86,0.121035
2940.53,0.121197
2942.2,0.121521
2943.87,0.121898
2945.54,0.12206
2947.22,0.122491
2948.89,0.122868
2950.57,0.123084
2952.25,0.123354
2953.93,0.123731
2955.62,0.124162
2957.3,0.124324
2958.99,0.124486
2960.68,0.124971
2962.37,0.125456
2964.07,0.12578
2965.76,0.126211
2967.46,0.126535
2969.16,0.126858
2970.86,0.127289
2972.56,0.127775
2974.27,0.12826
2975.98,0.128691
2977.69,0.12923
2979.4,0.129877
2981.11,0.130416
2982.83,0.13074
2984.54,0.131171
2986.26,0.131818
2987.98,0.132465
2989.71,0.132896
2991.43,0.133328
2993.16,0.133975
2994.89,0.134514
2996.62,0.134837
2998.35,0.13543
3000.09,0.136185
3001.83,0.136886
3003.57,0.137479
3005.31,0.138126
3007.05,0.138665
3008.79,0.139366
3010.54,0.140013
3012.29,0.140606
3014.04,0.141199
3015.8,0.141738
3017.55,0.142062
3019.31,0.142762
3021.07,0.143733
3022.83,0.144488
3024.59,0.145027
3026.36,0.145566
3028.13,0.145889
3029.9,0.146375
3031.67,0.146968
3033.44,0.147345
3035.22,0.147615
3037.0,0.147938
3038.78,0.1481
3040.56,0.148531
3042.34,0.148909
3044.13,0.149178
3045.92,0.149394
3047.71,0.149556
3049.5,0.149502
3051.3,0.149609
3053.09,0.149663
3054.89,0.149717
3056.69,0.149825
3058.5,0.149933
3060.3,0.150203
3062.11,0.150203
3063.92,0.150203
3065.73,0.150203
3067.55,0.150203
3069.36,0.150364
3071.18,0.150526
3073.0,0.150796
3074.82,0.150957
3076.65,0.151065
3078.48,0.151227
3080.31,0.151443
3082.14,0.151604
3083.97,0.151928
3085.8,0.152251
3087.64,0.152683
3089.48,0.153114
3091.33,0.153599
3093.17,0.153923
3095.02,0.1543
3096.87,0.154947
3098.72,0.155648
3100.57,0.156295
3102.43,0.15705
3104.28,0.157643
3106.14,0.15829
3108.01,0.159044
3109.87,0.159907
3111.74,0.160716
3113.61,0.161524
3115.48,0.162657
3117.35,0.163681
3119.23,0.164543
3121.1,0.165514
3122.98,0.166538
3124.87,0.167563
3126.75,0.168533
3128.64,0.169665
3130.53,0.170797
3132.42,0.171984
3134.31,0.173116
3136.21,0.174194
3138.11,0.175218
3140.01,0.176458
3141.91,0.177644
3143.82,0.178992
3145.73,0.180286
3147.64,0.181634
3149.55,0.18282
3151.46,0.184168
3153.38,0.185408
3155.3,0.186702
3157.22,0.18805
3159.14,0.189451
3161.07,0.190799
3163.0,0.192309
3164.93,0.193764
3166.86,0.195112
3168.8,0.196514
3170.74,0.19797
3172.68,0.199425
3174.62,0.200827
3176.56,0.202175
3178.51,0.203577
3180.46,0.204871
3182.42,0.206434
3184.37,0.207998
3186.33,0.209292
3188.29,0.210639
3190.25,0.212311
3192.21,0.213874
3194.18,0.21533
3196.15,0.216839
3198.12,0.218457
3200.09,0.219805
3202.07,0.221422
3204.05,0.222824
3206.03,0.224172
3208.02,0.225735
3210.0,0.227353
3211.99,0.22897
3213.98,0.230587
3215.98,0.232043
3217.97,0.233606
3219.97,0.23517
3221.97,0.236679
3223.98,0.238243
3225.98,0.239968
3227.99,0.241478
3230.0,0.24288
3232.02,0.244389
3234.03,0.245953
3236.05,0.247516
3238.07,0.249187
3240.1,0.250697
3242.12,0.252153
3244.15,0.253716
3246.18,0.255387
3248.22,0.257059
3250.25,0.25873
3252.29,0.260294
3254.33,0.261857
3256.38,0.263421
3258.43,0.26493
3260.47,0.266494
3262.53,0.268165
3264.58,0.269836
3266.64,0.2714
3268.7,0.272963
3270.76,0.274527
3272.82,0.27609
3274.89,0.277869
3276.96,0.279595
3279.04,0.281158
3281.11,0.282883
3283.19,0.284662
3285.27,0.286226
3287.35,0.287789
3289.44,0.289299
3291.53,0.290916
3293.62,0.29248
3295.71,0.293989
3297.81,0.295553
3299.91,0.297224
3302.01,0.298842
3304.11,0.300513
3306.22,0.302076
3308.33,0.303532
3310.44,0.305042
3312.56,0.306713
3314.68,0.308384
3316.8,0.309948
3318.92,0.311403
3321.05,0.313021
3323.18,0.314584
3325.31,0.315986
3327.44,0.317388
3329.58,0.318843
3331.72,0.320245
3333.86,0.321593
3336.01,0.322833
3338.16,0.324073
3340.31,0.325043
3342.46,0.326014
3344.61,0.326877
3346.77,0.328009
3348.94,0.329303
3351.1,0.330489
3353.27,0.331729
3355.44,0.33313
3357.61,0.334694
3359.79,0.336365
3361.97,0.337821
3364.15,0.33933
3366.33,0.340786
3368.52,0.342026
3370.71,0.343266
3372.9,0.344722
3375.1,0.345962
3377.3,0.347148
3379.5,0.348388
3381.71,0.349736
3383.91,0.351084
3386.12,0.352593
3388.34,0.353941
3390.55,0.355289
3392.77,0.356637
3394.99,0.357985
3397.22,0.359171
3399.45,0.360195
3401.68,0.360896
3403.91,0.361489
3406.15,0.362082
3408.39,0.362621
3410.63,0.363106
3412.87,0.363753
3415.12,0.364724
3417.37,0.366072
3419.63,0.367958
3421.88,0.370277
3424.14,0.372811
3426.41,0.375291
3428.67,0.377717
3430.94,0.379819
3433.21,0.38176
3435.49,0.383593
3437.77,0.385265
3440.05,0.386774
3442.33,0.388338
3444.62,0.389686
3446.91,0.390926
3449.2,0.392381
3451.5,0.393675
3453.8,0.394969
3456.1,0.396101
3458.41,0.397287
3460.72,0.398204
3463.03,0.398851
3465.34,0.399336
3467.66,0.399875
3469.98,0.400468
3472.31,0.400846
3474.63,0.401331
3476.96,0.401978
3479.3,0.402733
3481.64,0.403757
3483.97,0.404835
3486.32,0.405806
3488.66,0.406776
3491.01,0.407531
3493.36,0.408178
3495.72,0.408501
3498.08,0.408771
3500.44,0.409418
3502.81,0.41082
3505.18,0.412707
3507.55,0.415025
3509.92,0.417505
3512.3,0.419715
3514.68,0.42198
3517.06,0.424082
3519.45,0.426239
3521.84,0.428449
3524.24,0.430714
3526.64,0.432708
3529.04,0.434703
3531.44,0.43659
3533.85,0.438369
3536.26,0.439987
3538.67,0.441604
3541.09,0.44306
3543.51,0.444408
3545.93,0.445809
3548.36,0.447265
3550.79,0.448559
3553.22,0.449853
3555.66,0.451255
3558.1,0.452441
3560.54,0.453465
3562.99,0.454597
3565.44,0.455783
3567.9,0.456862
3570.35,0.45794
3572.81,0.459018
3575.28,0.46015
3577.75,0.461336
3580.22,0.462307
3582.69,0.463116
3585.17,0.464086
3587.65,0.46511
3590.14,0.466081
3592.62,0.466997
3595.11,0.467806
3597.61,0.468776
3600.11,0.469639
3602.61,0.470286
3605.11,0.470987
3607.62,0.471742
3610.14,0.472389
3612.65,0.473036
3615.17,0.473575
3617.69,0.474168
3620.22,0.474707
3622.75,0.475138
3625.28,0.475569
3627.82,0.476055
3630.36,0.476432
3632.9,0.47681
3635.45,0.477133
3638.0,0.477456
3640.56,0.47778
3643.12,0.478157
3645.68,0.478427
3648.24,0.478696
3650.81,0.478912
3653.39,0.479128
3655.96,0.479451
3658.54,0.479883
3661.13,0.480206
3663.71,0.480368
3666.3,0.480691
3668.9,0.481123
3671.5,0.481554
3674.1,0.481985
3676.7,0.482416
3679.31,0.482956
3681.93,0.483603
3684.54,0.48425
3687.17,0.484843
3689.79,0.485328
3692.42,0.485921
3695.05,0.48673
3697.69,0.487323
3700.32,0.48797
3702.97,0.488778
3705.61,0.489587
3708.27,0.490342
3710.92,0.491097
3713.58,0.491797
3716.24,0.492606
3718.91,0.493469
3721.58,0.494116
3724.25,0.49487
3726.93,0.495679
3729.61,0.496542
3732.29,0.49735
3734.98,0.49789
3737.67,0.498537
3740.37,0.499291
3743.07,0.5001
3745.78,0.500801
3748.49,0.501448
3751.2,0.502095
3753.91,0.502742
3756.63,0.503389
3759.36,0.504036
3762.09,0.504575
3764.82,0.50506
3767.55,0.505599
3770.29,0.506138
3773.04,0.506624
3775.78,0.507055
3778.54,0.507378
3781.29,0.507648
3784.05,0.507756
3786.82,0.507864
3789.59,0.507971
3792.36,0.507917
3795.13,0.507702
3797.92,0.507378
3800.7,0.507001
3803.49,0.506624
3806.28,0.506192
3809.08,0.505761
3811.88,0.505222
3814.68,0.504575
3817.49,0.50409
3820.31,0.50355
3823.12,0.50285
3825.94,0.502257
3828.77,0.50161
3831.6,0.500855
3834.43,0.500262
3837.27,0.499669
3840.11,0.499237
3842.96,0.498806
3845.81,0.498537
3848.67,0.498321
3851.53,0.498051
3854.39,0.497836
3857.26,0.497728
3860.13,0.497566
3863.01,0.497404
3865.89,0.49735
3868.77,0.497297
3871.66,0.497027
3874.55,0.496865
3877.45,0.496865
3880.35,0.496704
3883.26,0.496596
3886.17,0.496434
3889.09,0.496272
3892.01,0.49611
3894.93,0.495895
3897.86,0.495625
3900.79,0.495302
3903.73,0.495032
3906.67,0.494547
3909.62,0.494116
3912.57,0.493738
3915.52,0.493361
3918.48,0.492876
3921.45,0.492283
3924.42,0.491528
3927.39,0.490827
3930.37,0.489964
3933.35,0.488994
3936.34,0.487862
3939.33,0.48619
3942.32,0.484034
3945.32,0.481716
3948.33,0.479451
3951.34,0.477133
3954.35,0.474976
3957.37,0.473036
3960.39,0.471364
3963.42,0.469962
3966.45,0.468722
3969.49,0.467806
3972.53,0.467159
3975.58,0.46662
3978.63,0.466296
3981.68,0.466242
3984.75,0.466674
3987.81,0.467375
3990.88,0.468453
3993.95,0.469962
3997.03,0.47158
4000.12,0.473305
4003.21,0.47503
4006.3,0.476756
4009.4,0.478373
4012.5,0.479829
4015.61,0.481284
4018.72,0.482524
4021.84,0.483656
4024.96,0.484896
4028.09,0.486298
4031.22,0.487376
4034.36,0.488347
4037.5,0.489371
4040.65,0.490234
4043.8,0.491043
4046.96,0.49169
4050.12,0.492121
4053.29,0.492283
4056.46,0.492337
4059.64,0.49239
4062.82,0.492444
4066.0,0.49239
4069.19,0.492121
4072.39,0.491797
4075.59,0.491636
4078.8,0.491312
4082.01,0.490989
4085.23,0.490719
4088.45,0.490126
4091.68,0.489695
4094.91,0.489263
4098.15,0.488832
4101.39,0.488347
4104.63,0.487862
4107.89,0.487323
4111.14,0.48673
4114.41,0.48619
4117.67,0.485759
4120.95,0.48522
4124.23,0.484681
4127.51,0.484034
4130.8,0.483333
4134.09,0.482794
4137.39,0.482309
4140.7,0.481769
4144.01,0.48123
4147.32,0.480691
4150.64,0.479936
4153.97,0.479236
4157.3,0.478589
4160.64,0.477942
4163.98,0.477241
4167.33,0.476702
4170.68,0.476109
4174.04,0.475516
4177.4,0.474869
4180.77,0.47406
4184.14,0.473359
4187.52,0.472766
4190.91,0.472173
4194.3,0.471472
4197.69,0.470717
4201.1,0.470016
4204.5,0.469477
4207.92,0.468776
4211.34,0.468129
4214.76,0.467482
4218.19,0.466728
4221.62,0.466027
4225.06,0.465272
4228.51,0.464463
4231.96,0.463762
4235.42,0.463169
4238.88,0.462684
4242.35,0.462145
4245.83,0.46139
4249.31,0.460797
4252.79,0.46015
4256.28,0.459395
4259.78,0.458533
4263.29,0.457778
4266.79,0.456862
4270.31,0.455999
4273.83,0.455406
4277.35,0.454759
4280.89,0.454004
4284.42,0.453357
4287.97,0.452764
4291.52,0.452063
4295.07,0.451255
4298.63,0.450554
4302.2,0.449961
4305.78,0.449314
4309.35,0.448613
4312.94,0.447966
4316.53,0.447427
4320.13,0.446726
4323.73,0.445971
4327.34,0.445324
4330.96,0.444731
4334.58,0.44403
4338.21,0.443275
4341.84,0.442736
4345.48,0.442035
4349.12,0.441335
4352.77,0.440634
4356.43,0.440041
4360.1,0.439448
4363.76,0.438855
4367.44,0.438154
4371.12,0.437399
4374.81,0.436752
4378.51,0.436105
4382.21,0.435458
4385.92,0.434811
4389.63,0.434056
4393.35,0.433301
4397.08,0.432654
4400.81,0.431954
4404.55,0.431361
4408.29,0.430714
4412.04,0.430067
4415.8,0.429366
4419.57,0.428611
4423.34,0.427964
4427.12,0.427209
4430.9,0.426562
4434.69,0.425969
4438.49,0.425107
4442.29,0.424352
4446.1,0.423543
4449.92,0.42268
4453.74,0.42198
4457.57,0.421225
4461.41,0.420416
4465.25,0.419554
4469.1,0.418799
4472.95,0.418206
4476.82,0.417559
4480.69,0.416912
4484.56,0.416373
4488.44,0.41578
4492.33,0.41524
4496.23,0.414593
4500.13,0.414108
4504.04,0.413677
4507.96,0.4133
4511.88,0.412922
4515.81,0.412545
4519.75,0.412113
4523.69,0.411628
4527.65,0.411143
4531.6,0.410658
4535.57,0.410173
4539.54,0.409633
4543.52,0.409094
4547.5,0.408555
4551.5,0.408016
4555.5,0.407369
4559.5,0.406884
4563.52,0.406345
4567.54,0.405752
4571.56,0.405159
4575.6,0.40462
4579.64,0.403973
4583.69,0.403379
4587.75,0.402948
4591.81,0.402409
4595.88,0.401708
4599.96,0.401115
4604.04,0.400522
4608.14,0.399821
4612.24,0.39912
4616.34,0.398366
4620.46,0.397611
4624.58,0.396802
4628.71,0.396047
4632.84,0.395239
4636.99,0.394322
4641.14,0.393298
4645.3,0.392327
4649.47,0.391357
4653.64,0.390494
4657.82,0.389578
4662.01,0.388499
4666.21,0.387529
4670.41,0.386666
4674.62,0.385696
4678.84,0.384672
4683.07,0.383863
4687.3,0.383108
4691.54,0.382353
4695.79,0.381491
4700.05,0.38079
4704.31,0.380089
4708.59,0.379334
4712.87,0.378525
4717.15,0.377771
4721.45,0.376908
4725.76,0.376045
4730.07,0.375075
4734.39,0.374159
4738.72,0.373296
4743.05,0.372218
4747.39,0.371139
4751.75,0.370169
4756.1,0.369198
4760.47,0.368228
4764.85,0.367258
4769.23,0.366341
4773.62,0.365317
4778.02,0.364238
4782.43,0.36316
4786.85,0.362082
4791.27,0.361004
4795.7,0.359925
4800.14,0.358901
4804.59,0.357823
4809.05,0.356798
4813.51,0.355666
4817.99,0.354534
4822.47,0.353456
4826.96,0.35227
4831.46,0.35103
4835.96,0.34979
4840.48,0.348442
4845.0,0.347148
4849.54,0.345962
4854.08,0.344776
4858.63,0.34332
4863.18,0.341757
4867.75,0.340193
4872.33,0.338522
4876.91,0.336689
4881.5,0.33464
4886.1,0.332322
4890.71,0.329896
4895.33,0.327308
4899.96,0.324396
4904.59,0.32127
4909.24,0.317981
4913.89,0.314692
4918.55,0.311457
4923.22,0.308115
4927.9,0.30488
4932.59,0.301753
4937.29,0.29868
4942.0,0.295607
4946.71,0.292426
4951.44,0.289083
4956.17,0.285471
4960.91,0.281805
4965.67,0.278247
4970.43,0.274365
4975.2,0.270537
4979.98,0.266871
4984.76,0.263259
4989.56,0.259701
4994.37,0.256358
4999.18,0.253177
5004.01,0.250104
5008.84,0.247247
5013.69,0.244497
5018.54,0.241747
5023.4,0.239483
5028.28,0.23738
5033.16,0.235332
5038.05,0.233337
5042.95,0.23145
5047.86,0.229509
5052.78,0.227676
5057.71,0.22622
5062.65,0.224819
5067.6,0.223471
5072.56,0.222231
5077.53,0.22126
5082.5,0.22029
5087.49,0.219589
5092.49,0.21905
5097.5,0.218403
5102.51,0.21781
5107.54,0.217217
5112.58,0.21657
5117.62,0.215923
5122.68,0.215222
5127.75,0.214521
5132.82,0.213928
5137.91,0.213227
5143.01,0.212203
5148.12,0.211286
5153.23,0.210963
5158.36,0.210478
5163.5,0.209777
5168.65,0.209022
5173.81,0.208213
5178.98,0.207405
5184.15,0.206596
5189.34,0.205572
5194.54,0.204278
5199.75,0.203038
5204.98,0.201852
5210.21,0.200018
5215.45,0.198347
5220.7,0.197053
5225.96,0.195166
5231.23,0.192794
5236.52,0.19026
5241.81,0.18778
5247.12,0.185246
5252.44,0.182604
5257.76,0.179909
5263.1,0.177159
5268.45,0.174356
5273.81,0.171498
5279.18,0.16891
5284.56,0.166323
5289.95,0.163465
5295.36,0.161147
5300.77,0.159152
5306.2,0.156996
5311.63,0.154893
5317.08,0.152952
5322.54,0.151173
5328.01,0.149609
5333.49,0.148046
5338.98,0.146644
5344.49,0.144973
5350.0,0.143625
5355.53,0.143302
5361.07,0.143248
5366.62,0.143194
5372.18,0.14314
5377.75,0.143248
5383.34,0.143571
5388.93,0.144056
5394.54,0.144703
5400.16,0.14535
5405.79,0.145836
5411.44,0.146213
5417.09,0.145889
5422.76,0.145943
5428.43,0.147453
5434.12,0.148316
5439.83,0.148693
5445.54,0.149124
5451.26,0.149663
5457.0,0.149825
5462.75,0.149663
5468.52,0.150418
5474.29,0.151119
5480.08,0.151496
5485.88,0.152575
5491.69,0.15333
5497.51,0.153976
5503.35,0.154354
5509.2,0.154839
5515.06,0.155001
5520.93,0.154947
5526.82,0.155109
5532.71,0.155163
5538.63,0.154677
5544.55,0.153653
5550.49,0.152521
5556.44,0.151982
5562.4,0.151982
5568.37,0.152089
5574.36,0.151389
5580.36,0.151604
5586.37,0.153545
5592.4,0.155055
5598.44,0.15554
5604.49,0.156187
5610.56,0.156888
5616.63,0.157265
5622.73,0.15775
5628.83,0.157858
5634.95,0.156888
5641.08,0.15581
5647.23,0.156834
5653.39,0.157373
5659.56,0.157696
5665.74,0.157804
5671.94,0.15651
5678.15,0.155863
5684.38,0.15581
5690.62,0.154785
5696.87,0.154354
5703.14,0.153006
5709.42,0.150903
5715.72,0.150149
5722.03,0.149663
5728.35,0.148963
5734.69,0.14783
5741.03,0.146429
5747.4,0.144865
5753.78,0.144326
5760.17,0.14163
5766.58,0.138881
5773.0,0.139851
5779.44,0.140229
5785.88,0.139636
5792.35,0.138773
5798.83,0.137641
5805.32,0.136778
5811.83,0.135107
5818.35,0.132088
5824.89,0.130848
5831.45,0.131333
5838.01,0.131387
5844.59,0.13074
5851.19,0.129338
5857.8,0.127505
5864.43,0.125942
5871.07,0.124486
5877.73,0.12055
5884.4,0.119095
5891.09,0.118016
5897.79,0.115914
5904.5,0.11586
5911.23,0.114242
5917.98,0.111762
5924.75,0.109013
5931.53,0.104808
5938.32,0.101681
5945.13,0.101034
5951.96,0.099147
5958.8,0.096505
5965.65,0.092947
5972.53,0.090413
5979.42,0.087987
5986.32,0.084752
5993.24,0.082272
6000.18,0.080331
6007.13,0.077581
6014.1,0.074778
6021.08,0.072729
6028.09,0.070626
6035.1,0.068093
6042.14,0.064534
6049.19,0.061246
6056.25,0.06103
6063.34,0.059952
6070.44,0.057687
6077.55,0.056393
6084.69,0.055746
6091.84,0.05483
6099.0,0.054021
6106.19,0.052835
6113.39,0.052026
6120.61,0.052458
6127.84,0.052997
6135.09,0.053374
6142.36,0.053967
6149.65,0.054776
6156.95,0.055531
6164.27,0.057094
6171.61,0.058981
6178.97,0.060059
6186.34,0.061785
6193.73,0.065019
6201.14,0.067985
6208.57,0.07095
6216.01,0.074616
6223.47,0.078929
6230.95,0.083512
6238.45,0.08831
6245.97,0.09327
6253.5,0.098176
6261.06,0.102705
6268.63,0.107072
6276.21,0.110954
6283.82,0.114674
6291.45,0.117908
6299.1,0.120766
6306.76,0.1233
6314.44,0.125672
6322.14,0.127613
6329.86,0.129284
6337.6,0.129122
6345.35,0.129715
6353.13,0.132789
6360.92,0.133921
6368.74,0.133759
6376.57,0.135107
6384.43,0.136185
6392.3,0.136562
6400.19,0.135754
6408.1,0.132034
6416.03,0.131063
6423.98,0.134029
6431.95,0.134945
6439.94,0.135322
6447.95,0.134891
6455.98,0.134082
6464.03,0.132842
6472.1,0.130632
6480.19,0.128152
6488.31,0.124917
6496.44,0.123785
6504.59,0.125133
6512.76,0.124162
6520.95,0.12179
6529.16,0.121089
6537.4,0.119903
6545.65,0.118178
6553.92,0.116453
6562.22,0.114781
6570.54,0.112463
6578.88,0.112301
6587.23,0.112086
6595.61,0.111385
6604.02,0.1109
6612.44,0.109714
6620.89,0.108204
6629.35,0.105239
6637.84,0.102921
6646.35,0.103999
6654.88,0.104376
6663.44,0.102867
6672.01,0.101034
6680.61,0.099362
6689.23,0.098877
6697.88,0.098122
6706.54,0.096181
6715.23,0.094995
6723.94,0.094456
6732.67,0.094079
6741.42,0.093324
6750.2,0.092354
6759.0,0.091383
6767.82,0.090197
6776.67,0.088795
6785.54,0.087178
6794.44,0.086585
6803.35,0.086854
6812.29,0.086207
6821.26,0.084913
6830.24,0.084051
6839.25,0.083673
6848.29,0.082218
6857.35,0.079953
6866.43,0.079037
6875.54,0.079738
6884.67,0.07936
6893.82,0.078498
6903.0,0.07742
6912.2,0.076719
6921.43,0.076126
6930.69,0.075317
6939.96,0.0744
6949.27,0.073106
6958.59,0.071543
6967.95,0.071381
6977.33,0.071166
6986.73,0.070249
6996.16,0.069494
7005.61,0.068847
7015.09,0.067877
7024.6,0.067176
7034.13,0.066367
7043.69,0.064966
7053.27,0.064534
7062.88,0.064373
7072.52,0.063779
7082.18,0.063079
7091.87,0.062162
7101.58,0.061353
7111.32,0.060329
7121.09,0.059143
7130.88,0.057957
7140.71,0.056717
7150.56,0.055639
7160.43,0.054614
7170.33,0.053482
7180.27,0.052889
7190.23,0.052134
7200.21,0.050948
7210.23,0.049978
7220.27,0.049439
7230.34,0.048738
7240.44,0.047875
7250.56,0.046959
7260.72,0.04615
7270.9,0.045179
7281.12,0.044532
7291.36,0.043993
7301.63,0.043292
7311.93,0.042592
7322.25,0.041891
7332.61,0.041082
7343.0,0.040435
7353.41,0.039842
7363.86,0.039195
7374.33,0.038494
7384.83,0.037739
7395.37,0.036985
7405.93,0.036176
7416.53,0.035421
7427.15,0.034774
7437.81,0.034073
7448.5,0.033211
7459.22,0.032348
7469.96,0.031593
7480.74,0.030785
7491.55,0.030138
7502.39,0.029437
7513.27,0.028574
7524.17,0.027711
7535.11,0.027064
7546.08,0.02631
7557.08,0.025663
7568.11,0.024962
7579.17,0.024261
7590.27,0.023452
7601.4,0.022805
7612.56,0.022266
7623.76,0.021727
7634.98,0.021134
7646.24,0.020757
7657.54,0.020325
7668.87,0.01984
7680.23,0.019463
7691.62,0.018977
7703.05,0.018384
7714.51,0.018007
7726.01,0.01763
7737.54,0.017198
7749.11,0.016821
7760.71,0.016551
7772.35,0.01612
7784.02,0.015743
7795.72,0.015473
7807.46,0.015311
7819.23,0.015042
7831.04,0.014826
7842.89,0.014664
7854.77,0.014557
7866.69,0.014395
7878.65,0.014395
7890.64,0.014449
7902.67,0.014449
7914.74,0.014503
7926.84,0.014664
7938.98,0.014718
7951.16,0.015042
7963.37,0.015311
7975.62,0.015581
7987.91,0.015851
8000.24,0.016228
8012.6,0.016605
8025.01,0.016821
8037.45,0.017144
8049.93,0.017684
8062.45,0.018223
8075.01,0.018762
8087.61,0.019355
8100.24,0.020056
8112.91,0.020811
8125.63,0.021619
8138.39,0.022266
8151.18,0.022967
8164.02,0.023722
8176.9,0.024423
8189.81,0.024908
8202.77,0.025447
8215.77,0.026148
8228.82,0.027011
8241.9,0.027819
8255.02,0.02852
8268.19,0.029167
8281.39,0.030084
8294.65,0.031054
8307.94,0.032078
8321.28,0.033049
8334.66,0.034019
8348.08,0.035151
8361.54,0.03623
8375.05,0.037092
8388.6,0.037901
8402.2,0.038764
8415.84,0.039411
8429.52,0.039896
8443.25,0.040435
8457.02,0.041028
8470.84,0.041513
8484.7,0.041783
8498.61,0.041998
8512.57,0.042106
8526.57,0.042376
8540.62,0.042645
8554.71,0.043077
8568.85,0.043454
8583.04,0.043832
8597.27,0.044317
8611.55,0.044964
8625.88,0.04588
8640.26,0.046851
8654.68,0.047659
8669.16,0.048468
8683.68,0.049115
8698.25,0.049439
8712.87,0.0496
8727.53,0.04987
8742.25,0.050085
8757.02,0.050193
8771.83,0.050085
8786.7,0.04987
8801.62,0.049708
8816.59,0.049385
8831.61,0.048953
8846.68,0.048252
8861.8,0.047228
8876.97,0.046258
8892.2,0.045341
8907.48,0.044371
8922.81,0.0434
8938.2,0.042592
8953.63,0.041675
8969.13,0.041028
8984.67,0.04092
9000.27,0.04119
9015.92,0.041675
9031.63,0.042753
9047.39,0.044371
9063.21,0.046365
9079.08,0.048684
9095.01,0.051325
9111.0,0.053859
9127.04,0.056393
9143.13,0.059089
9159.28,0.061785
9175.49,0.064373
9191.76,0.066799
9208.09,0.069225
9224.47,0.071543
9240.92,0.073376
9257.42,0.075101
9273.98,0.076449
9290.6,0.077204
9307.28,0.077527
9324.02,0.077258
9340.82,0.076449
9357.68,0.075155
9374.6,0.073268
9391.58,0.07122
9408.62,0.06944
9425.73,0.067823
9442.9,0.066098
9460.13,0.064588
9477.42,0.06324
9494.78,0.061946
9512.2,0.060652
9529.69,0.059412
9547.24,0.058065
9564.86,0.056879
9582.54,0.055639
9600.28,0.054399
9618.1,0.05332
9635.97,0.052458
9653.92,0.051541
9671.93,0.050517
9690.01,0.049277
9708.16,0.048414
9726.37,0.047659
9744.65,0.047012
9763.0,0.046473
9781.43,0.045665
9799.92,0.04464
9818.48,0.043724
9837.1,0.042861
9855.8,0.042322
9874.58,0.041729
9893.42,0.041028
9912.34,0.040381
9931.33,0.039734
9950.39,0.039033
9969.52,0.03844
9988.74,0.037955
10008.0,0.037739
10027.4,0.037254
10046.8,0.036823
10066.3,0.036499
10085.9,0.036338
10105.6,0.036122
10125.3,0.035691
10145.1,0.035367
10165.0,0.035313
10185.0,0.035259
10205.0,0.035151
10225.2,0.034774
10245.4,0.034558
10265.7,0.034505
10286.0,0.034235
10306.5,0.034073
10327.0,0.034073
10347.6,0.033804
10368.3,0.033588
10389.1,0.033318
10409.9,0.033157
10430.9,0.032887
10451.9,0.032671
10473.0,0.032456
10494.2,0.032402
10515.5,0.032078
10536.9,0.031701
10558.4,0.03127
10579.9,0.030946
10601.5,0.030569
10623.3,0.030138
10645.1,0.029706
10667.0,0.029167
10689.0,0.02852
10711.1,0.027981
10733.2,0.027496
10755.5,0.027172
10777.9,0.026687
10800.3,0.026579
10822.9,0.026795
10845.5,0.026903
10868.2,0.027064
10891.1,0.027226
10914.0,0.027658
10937.0,0.028358
10960.2,0.028844
10983.4,0.029545
11006.7,0.03003
11030.1,0.030569
11053.6,0.031
11077.3,0.03127
11101.0,0.031378
11124.8,0.031162
11148.7,0.030677
11172.7,0.030299
11196.9,0.030084
11221.1,0.02976
11245.4,0.029275
11269.9,0.028951
11294.4,0.028844
11319.1,0.028682
11343.9,0.028682
11368.8,0.029275
11393.7,0.029814
11418.8,0.030191
11444.0,0.030731
11469.4,0.031539
11494.8,0.032564
11520.3,0.033642
11546.0,0.034505
11571.8,0.035098
11597.7,0.035529
11623.7,0.035637
11649.8,0.035313
11676.0,0.035098
11702.4,0.034936
11728.9,0.034828
11755.5,0.034774
11782.2,0.035044
11809.0,0.035583
11836.0,0.036014
11863.0,0.036445
11890.3,0.03747
11917.6,0.038602
11945.0,0.039249
11972.6,0.03968
12000.4,0.040165
12028.2,0.040812
12056.2,0.041136
12084.3,0.04092
12112.5,0.040758
12140.9,0.040543
12169.4,0.040327
12198.0,0.039626
12226.8,0.03844
12255.7,0.037254
12284.7,0.03623
12313.9,0.034828
12343.2,0.032779
12372.7,0.030892
12402.3,0.028898
12432.0,0.027172
12461.9,0.026364
12491.9,0.026148
12522.1,0.026418
12552.4,0.02728
12582.9,0.028466
12613.5,0.029545
12644.3,0.030623
12675.2,0.031431
12706.3,0.032078
12737.5,0.032078
12768.9,0.031863
12800.4,0.031809
12832.1,0.032132
12863.9,0.033372
12895.9,0.035313
12928.1,0.037308
12960.4,0.039249
12992.9,0.040651
13025.5,0.041567
13058.3,0.041675
13091.3,0.041837
13124.4,0.041675
13157.8,0.041675
13191.2,0.041298
13224.9,0.040597
13258.7,0.039788
13292.7,0.038872
13326.9,0.037685
13361.2,0.036715
13395.7,0.035637
13430.4,0.034451
13465.3,0.033157
13500.4,0.031917
13535.7,0.030838
13571.1,0.029868
13606.7,0.02879
13642.5,0.027604
13678.5,0.026364
13714.7,0.025771
13751.1,0.025231
13787.6,0.024531
13824.4,0.02356
13861.4,0.023129
13898.5,0.022967
13935.9,0.022266
13973.5,0.020972
14011.2,0.02011
14049.2,0.019732
14087.4,0.019247
14125.8,0.01887
14164.3,0.0186
14203.2,0.017953
14242.2,0.01736
14281.4,0.016713
14320.9,0.015851
14360.5,0.015365
14400.4,0.015096
14440.5,0.014826
14480.9,0.014718
14521.4,0.014664
14562.2,0.014826
14603.3,0.014557
14644.5,0.014125
14686.0,0.013748
14727.7,0.013694
14769.7,0.013263
14811.9,0.012724
14854.3,0.012184
14897.0,0.011537
14939.9,0.010837
14983.1,0.010459
15026.5,0.010405
15070.2,0.010136
15114.2,0.009597
15158.3,0.009057
15202.8,0.008626
15247.5,0.008087
15292.5,0.00771
15337.7,0.007764
15383.2,0.007602
15429.0,0.007278
15475.1,0.007009
15521.4,0.007764
15568.0,0.008464
15614.9,0.008572
15662.1,0.008626
15709.6,0.008626
15757.3,0.00868
15805.4,0.009273
15853.7,0.009866
15902.3,0.010783
15951.2,0.011268
16000.5,0.011861
16050.0,0.012238
16099.8,0.012292
16150.0,0.012616
16200.5,0.01364
16251.3,0.014449
16302.4,0.015365
16353.8,0.015635
16405.5,0.015581
16457.6,0.015797
16510.0,0.016713
16562.8,0.017414
16615.9,0.017899
16669.3,0.018115
16723.1,0.019193
16777.2,0.020325
16831.7,0.021404
16886.5,0.022158
16941.7,0.023075
16997.2,0.023991
17053.1,0.025285
17109.4,0.025986
17166.1,0.026903
17223.1,0.028197
17280.5,0.029976
17338.3,0.031162
17396.5,0.032078
17455.1,0.033426
17514.0,0.034666
17573.4,0.035421
17633.2,0.036445
17693.4,0.03747
17754.0,0.03844
17815.0,0.038979
17876.4,0.040058
17938.3,0.04092
18000.5,0.042106
18063.3,0.042861
18126.4,0.0434
18190.0,0.043778
18254.1,0.044694
18318.6,0.045718
18383.5,0.046581
18449.0,0.046419
18514.9,0.046797
18581.2,0.047174
18648.0,0.047174
18715.4,0.04615
18783.2,0.045718
18851.5,0.045018
18920.3,0.044371
18989.6,0.043885
19059.4,0.043832
19129.7,0.041837
19200.6,0.04092
19272.0,0.040058
19343.9,0.037092
19416.3,0.034181
19489.3,0.032294
19562.8,0.031108
19637.0,0.029545
19711.6,0.027658
19786.8,0.027118
19862.6,0.025878
19939.0,0.02356
20016.0,0.023291
20093.6,0.025609
20171.8,0.027496
20250.6,0.030731
20330.0,0.034882
20410.0,0.039465
20490.7,0.043993
20572.0,0.048199
20654.0,0.051218
20736.6,0.053536
20819.9,0.057493
20903.8,0.058727
20988.5,0.05848
21073.8,0.058069
21159.8,0.058644
21246.5,0.06103
21334.0,0.062675
21422.1,0.06103
21511.0,0.058644
21600.7,0.056588
21691.0,0.055683
21782.1,0.055108
21874.0,0.054285
21966.7,0.053792
22060.2,0.053051
22154.5,0.052393
22249.6,0.051735
22345.5,0.051982
22442.2,0.052229
22539.8,0.051818
22638.2,0.052393
22737.5,0.052969
22837.7,0.052887
22938.7,0.052393
23040.7,0.053545
23143.5,0.055519
23247.3,0.055601
23352.1,0.054121
23457.7,0.052722
23564.4,0.052393
23672.0,0.052558
23780.5,0.053298
23890.1,0.054532
24000.7,0.05667
24112.3,0.058562
24225.0,0.059302
24338.7,0.059549
24453.5,0.060125
24569.4,0.061441
24686.4,0.062017
24804.5,0.060865
24923.8,0.05922
25044.2,0.057657
25165.8,0.058809
25288.6,0.06251
25412.5,0.065636
25537.7,0.067034
25664.1,0.067445
25791.8,0.066541
25920.8,0.065554
26051.1,0.064567
26182.6,0.064402
26315.5,0.063004
26449.8,0.060701
26585.4,0.058973
26722.5,0.057082
26860.9,0.056341
27000.8,0.056506
27142.1,0.05774
27285.0,0.059467
27429.4,0.059632
27575.3,0.058973
27722.7,0.059549
27871.8,0.058562
28022.4,0.056999
28174.7,0.056012
28328.7,0.053627
28484.4,0.050419
28641.7,0.047047
28800.9,0.04458
28961.8,0.044004
29124.5,0.045978
29289.0,0.048774
29455.4,0.051077
29623.8,0.053216
29794.0,0.055354
29966.3,0.056753
30140.5,0.058315
30316.7,0.059878
30495.1,0.061277
30675.5,0.063415
30858.1,0.066623
31042.8,0.069831
31229.8,0.07164
31419.1,0.072792
31610.7,0.074354
31804.6,0.075917
32000.9,0.077809
32199.7,0.078796
32400.9,0.079289
32604.8,0.07822
32811.1,0.077233
33020.1,0.078467
33231.8,0.081757
33446.2,0.084224
33663.4,0.086198
33883.4,0.087679
34106.3,0.088666
34332.1,0.090558
34561.0,0.092285
34792.9,0.094341
35028.0,0.09467
35266.3,0.095739
35507.8,0.097055
35752.7,0.097055
36001.0,0.098207
36252.8,0.100345
36508.1,0.100674
36767.0,0.100757
37029.7,0.101826
37296.1,0.102977
37566.3,0.102895
37840.5,0.101332
38118.8,0.101497
38401.2,0.105034
38687.8,0.107172
38978.6,0.107172
39273.9,0.106843
39573.7,0.108159
39878.1,0.109064
40187.3,0.108817
40501.2,0.109146
40820.0,0.109393
41144.0,0.10964
41473.2,0.110215
41807.6,0.109311
42147.5,0.107748
42493.0,0.107748
42844.2,0.108077
43201.2,0.108324
43564.3,0.107912
43933.5,0.108406
44309.0,0.109393
44691.0,0.109722
45079.6,0.110873
45475.0,0.112436
45877.5,0.11293
46287.1,0.113176
46704.2,0.113588
47128.7,0.113588
47561.1,0.111696
48001.5,0.10857
48450.1,0.103882
48907.2,0.097549
49373.0,0.093683
49847.7,0.097549
50331.5,0.100345
50825.0,0.100674
51328.2,0.102484
51841.5,0.107254
52365.1,0.108488
52899.4,0.11038
53444.8,0.114163
54001.5,0.115726
54570.1,0.115397
55150.6,0.115726
55743.6,0.11293
56349.5,0.109311
56968.7,0.10709
57601.7,0.105363
58248.9,0.102648
58910.9,0.102073
59588.1,0.103718
60281.0,0.102648
60990.2,0.102237
61716.3,0.102566
62459.8,0.100592
63221.6,0.100099
64002.1,0.101415
64802.1,0.099605
65622.1,0.098454
66463.4,0.096973
67326.6,0.096644
68212.4,0.096068
69121.9,0.09467
70056.0,0.091298
71015.7,0.088337
72002.0,0.087103
73016.3,0.086856
74059.4,0.086281
75132.7,0.083813
76237.6,0.081921
77375.5,0.080523
78547.9,0.07822
79756.3,0.074025
81002.5,0.068597
82288.5,0.065554
83615.7,0.064155
84986.5,0.06687
86402.9,0.068597
87867.4,0.066458
89382.4,0.063826
90950.5,0.069666
92574.6,0.075835
94257.2,0.07164
96002.7,0.068597
97814.1,0.067363
99695.1,0.065965
101650.0,0.064896
103683.0,0.064731
105799.0,0.067116
108003.0,0.074437
110301.0,0.077562
112699.0,0.07345
115204.0,0.075012
117822.0,0.073861
120562.0,0.077727
123433.0,0.08883
126443.0,0.094423
129604.0,0.092532
132926.0,0.09138
136424.0,0.100345
140111.0,0.105445
144003.0,0.10783
148118.0,0.102155
152474.0,0.087268
157095.0,0.077315
162004.0,0.105692
167231.0,0.120744
172805.0,0.130943
178764.0,0.144103
185148.0,0.15496
192005.0,0.147475
199390.0,0.144185
207366.0,0.171821
216006.0,0.150107