Composition,
Date Added,2022-04-27 20:01:21.561932
Formula,
Grain Size,
Locality,
Minimum Wavelength,1380.0
Sample Name,Montmorillonite
Maximum Wavelength,24924.0
Database of Origin,USGS Spectral Database
Other Information,
References,
Resolution,
Material Class,Phyllosilicate
Sample Description,See USGS database for additional info
Sample ID,Montmorillonite_cm27.14453
Original Sample ID,
Sample Type,None
Viewing Geometry,
Wavelength,Response
1379.5,0.62799
1379.87,0.625848
1380.23,0.62335
1380.6,0.622381
1380.97,0.621565
1381.34,0.620137
1381.7,0.618607
1382.07,0.617129
1382.44,0.615548
1382.81,0.614477
1383.18,0.613203
1383.55,0.611775
1383.92,0.610704
1384.29,0.609378
1384.66,0.607696
1385.03,0.606574
1385.4,0.605401
1385.77,0.604024
1386.14,0.602597
1386.51,0.600659
1386.88,0.598976
1387.25,0.597192
1387.62,0.59505
1387.99,0.593215
1388.36,0.591889
1388.74,0.590461
1389.11,0.58888
1389.48,0.58628
1389.85,0.584801
1390.23,0.582813
1390.6,0.580569
1390.97,0.578734
1391.35,0.576796
1391.72,0.57445
1392.09,0.571646
1392.47,0.569096
1392.84,0.567822
1393.21,0.566343
1393.59,0.564252
1393.96,0.561805
1394.34,0.55951
1394.71,0.55691
1395.09,0.554513
1395.46,0.552831
1395.84,0.550536
1396.22,0.547426
1396.59,0.545437
1396.97,0.543755
1397.35,0.541562
1397.72,0.539114
1398.1,0.536973
1398.48,0.534984
1398.85,0.5332
1399.23,0.531262
1399.61,0.528968
1399.99,0.526826
1400.37,0.524939
1400.74,0.522696
1401.12,0.520452
1401.5,0.518617
1401.88,0.517546
1402.26,0.516322
1402.64,0.51469
1403.02,0.512855
1403.4,0.510815
1403.78,0.508929
1404.16,0.507348
1404.54,0.505665
1404.92,0.504187
1405.3,0.50332
1405.68,0.502045
1406.06,0.500566
1406.44,0.49919
1406.83,0.497966
1407.21,0.497048
1407.59,0.495875
1407.97,0.495008
1408.35,0.493632
1408.74,0.492255
1409.12,0.491643
1409.5,0.491235
1409.89,0.490878
1410.27,0.490419
1410.65,0.489909
1411.04,0.489094
1411.42,0.488839
1411.81,0.488737
1412.19,0.488788
1412.58,0.488737
1412.96,0.488635
1413.35,0.488635
1413.73,0.488584
1414.12,0.488584
1414.5,0.489043
1414.89,0.489654
1415.28,0.490062
1415.66,0.490827
1416.05,0.49149
1416.44,0.492153
1416.82,0.492663
1417.21,0.493377
1417.6,0.494193
1417.98,0.494957
1418.37,0.495824
1418.76,0.496742
1419.15,0.498068
1419.54,0.499292
1419.93,0.500617
1420.32,0.501433
1420.71,0.502351
1421.09,0.503575
1421.48,0.504696
1421.88,0.505869
1422.27,0.507042
1422.66,0.508266
1423.05,0.509337
1423.44,0.510509
1423.83,0.511733
1424.22,0.512957
1424.61,0.51413
1425.0,0.515047
1425.39,0.516169
1425.78,0.517699
1426.18,0.518821
1426.57,0.519381
1426.96,0.520503
1427.36,0.521625
1427.75,0.522441
1428.14,0.523665
1428.54,0.525041
1428.93,0.525908
1429.32,0.526622
1429.72,0.527693
1430.11,0.528764
1430.51,0.529528
1430.9,0.530344
1431.3,0.531211
1431.69,0.532537
1432.09,0.533251
1432.48,0.533914
1432.88,0.534729
1433.28,0.535698
1433.67,0.536361
1434.07,0.536973
1434.46,0.537687
1434.86,0.538707
1435.26,0.539369
1435.66,0.540134
1436.05,0.541001
1436.45,0.542021
1436.85,0.542123
1437.25,0.54248
1437.65,0.54299
1438.05,0.543653
1438.44,0.544213
1438.84,0.544774
1439.24,0.545488
1439.64,0.5461
1440.04,0.546508
1440.44,0.546814
1440.84,0.547222
1441.24,0.547936
1441.65,0.548242
1442.05,0.548242
1442.45,0.548905
1442.85,0.549567
1443.25,0.54972
1443.65,0.549924
1444.05,0.550179
1444.46,0.550485
1444.86,0.550638
1445.26,0.550638
1445.67,0.551097
1446.07,0.551352
1446.47,0.551403
1446.88,0.551709
1447.28,0.552066
1447.68,0.551556
1448.09,0.551607
1448.49,0.552066
1448.9,0.552525
1449.3,0.552831
1449.71,0.552729
1450.11,0.552525
1450.52,0.552423
1450.93,0.552321
1451.33,0.552423
1451.74,0.552321
1452.14,0.552066
1452.55,0.552015
1452.96,0.55227
1453.36,0.552423
1453.77,0.552525
1454.18,0.551913
1454.59,0.551505
1455.0,0.55176
1455.41,0.551403
1455.81,0.550842
1456.22,0.551046
1456.63,0.551148
1457.04,0.551046
1457.45,0.550893
1457.86,0.550485
1458.27,0.550383
1458.68,0.55023
1459.09,0.55023
1459.5,0.549771
1459.91,0.54921
1460.32,0.548854
1460.74,0.549006
1461.15,0.548956
1461.56,0.549006
1461.97,0.549058
1462.39,0.54921
1462.8,0.548854
1463.21,0.548446
1463.62,0.548446
1464.04,0.54865
1464.45,0.548854
1464.86,0.548701
1465.28,0.548752
1465.69,0.549006
1466.11,0.549006
1466.52,0.548956
1466.94,0.54921
1467.35,0.549363
1467.77,0.549363
1468.18,0.549618
1468.6,0.550026
1469.02,0.550383
1469.43,0.550485
1469.85,0.550842
1470.27,0.550995
1470.68,0.550944
1471.1,0.55125
1471.52,0.552015
1471.94,0.552015
1472.35,0.552066
1472.77,0.552066
1473.19,0.551964
1473.61,0.552423
1474.03,0.552678
1474.45,0.553086
1474.87,0.553341
1475.29,0.553545
1475.71,0.553901
1476.13,0.554258
1476.55,0.554666
1476.97,0.554972
1477.39,0.555074
1477.81,0.554972
1478.23,0.555125
1478.65,0.555635
1479.07,0.556043
1479.5,0.556196
1479.92,0.556349
1480.34,0.556655
1480.76,0.55691
1481.19,0.557624
1481.61,0.558032
1482.03,0.558287
1482.46,0.558134
1482.88,0.558287
1483.31,0.558695
1483.73,0.558949
1484.16,0.559204
1484.58,0.559255
1485.01,0.559255
1485.43,0.55951
1485.86,0.559765
1486.28,0.56002
1486.71,0.560173
1487.14,0.560377
1487.56,0.560887
1487.99,0.561193
1488.42,0.561142
1488.84,0.561193
1489.27,0.561397
1489.7,0.561601
1490.13,0.561805
1490.56,0.562366
1490.98,0.56308
1491.41,0.562978
1491.84,0.562774
1492.27,0.562825
1492.7,0.562927
1493.13,0.563539
1493.56,0.563743
1493.99,0.563895
1494.42,0.564303
1494.85,0.564252
1495.29,0.564456
1495.72,0.564864
1496.15,0.565068
1496.58,0.565119
1497.01,0.565323
1497.44,0.565629
1497.88,0.565731
1498.31,0.565782
1498.74,0.565935
1499.18,0.566241
1499.61,0.566853
1500.04,0.566955
1500.48,0.566955
1500.91,0.567261
1501.35,0.567516
1501.78,0.567516
1502.22,0.567618
1502.65,0.567822
1503.09,0.567924
1503.53,0.567975
1503.96,0.567924
1504.4,0.568128
1504.83,0.568536
1505.27,0.568689
1505.71,0.568689
1506.15,0.569198
1506.58,0.569708
1507.02,0.569759
1507.46,0.569606
1507.9,0.569555
1508.34,0.569759
1508.78,0.569963
1509.21,0.570218
1509.66,0.570626
1510.09,0.570728
1510.53,0.57083
1510.97,0.570779
1511.42,0.570983
1511.86,0.571187
1512.3,0.571085
1512.74,0.571442
1513.18,0.571799
1513.62,0.571748
1514.06,0.571952
1514.51,0.572105
1514.95,0.572258
1515.39,0.572309
1515.83,0.572309
1516.28,0.572666
1516.72,0.573023
1517.16,0.573278
1517.61,0.573431
1518.05,0.573482
1518.5,0.573584
1518.94,0.573736
1519.39,0.574195
1519.83,0.574042
1520.28,0.573788
1520.73,0.574144
1521.17,0.57445
1521.62,0.574552
1522.07,0.574603
1522.51,0.574756
1522.96,0.57496
1523.41,0.575164
1523.85,0.575164
1524.3,0.575368
1524.75,0.575623
1525.2,0.575521
1525.65,0.575827
1526.1,0.576337
1526.55,0.576031
1527.0,0.576082
1527.45,0.576235
1527.9,0.57649
1528.35,0.576643
1528.8,0.576745
1529.25,0.576898
1529.7,0.577306
1530.15,0.577459
1530.6,0.577561
1531.05,0.577867
1531.51,0.578071
1531.96,0.578071
1532.41,0.578122
1532.87,0.578173
1533.32,0.578224
1533.77,0.57853
1534.23,0.578785
1534.68,0.579039
1535.14,0.579243
1535.59,0.5796
1536.05,0.579702
1536.5,0.579855
1536.96,0.580314
1537.41,0.580416
1537.87,0.580467
1538.32,0.58062
1538.78,0.580926
1539.24,0.581181
1539.7,0.581334
1540.15,0.581589
1540.61,0.581793
1541.07,0.581844
1541.53,0.582201
1541.98,0.582354
1542.44,0.582456
1542.9,0.582507
1543.36,0.582354
1543.82,0.582609
1544.28,0.583221
1544.74,0.583782
1545.2,0.583883
1545.66,0.584036
1546.12,0.58424
1546.59,0.584342
1547.05,0.584648
1547.51,0.584852
1547.97,0.584801
1548.43,0.585005
1548.9,0.585464
1549.36,0.585617
1549.82,0.585464
1550.29,0.585566
1550.75,0.586127
1551.21,0.586484
1551.68,0.586382
1552.14,0.586433
1552.61,0.586841
1553.07,0.587045
1553.54,0.587402
1554.0,0.587657
1554.47,0.58781
1554.93,0.588065
1555.4,0.588116
1555.87,0.588473
1556.34,0.588626
1556.8,0.588626
1557.27,0.588982
1557.74,0.589186
1558.21,0.589186
1558.68,0.589441
1559.14,0.589543
1559.61,0.589849
1560.08,0.590206
1560.55,0.590359
1561.02,0.590512
1561.49,0.590461
1561.96,0.590665
1562.43,0.590971
1562.9,0.591226
1563.38,0.591481
1563.85,0.591634
1564.32,0.591991
1564.79,0.592195
1565.26,0.592399
1565.74,0.592399
1566.21,0.592501
1566.68,0.592552
1567.16,0.592705
1567.63,0.592909
1568.1,0.593011
1568.58,0.593011
1569.05,0.593419
1569.53,0.593571
1570.0,0.593571
1570.48,0.593928
1570.96,0.594234
1571.43,0.594489
1571.91,0.594744
1572.39,0.594846
1572.86,0.594999
1573.34,0.594948
1573.82,0.594999
1574.3,0.595203
1574.77,0.595458
1575.25,0.595662
1575.73,0.595866
1576.21,0.596121
1576.69,0.596172
1577.17,0.596427
1577.65,0.596427
1578.13,0.596376
1578.61,0.596733
1579.09,0.596835
1579.57,0.59709
1580.05,0.597396
1580.54,0.597498
1581.02,0.597702
1581.5,0.597651
1581.98,0.597855
1582.47,0.59811
1582.95,0.598314
1583.43,0.598416
1583.92,0.598569
1584.4,0.59862
1584.88,0.598976
1585.37,0.599333
1585.85,0.59918
1586.34,0.599282
1586.82,0.599537
1587.31,0.599639
1587.8,0.599792
1588.28,0.599894
1588.77,0.600098
1589.26,0.599945
1589.74,0.600047
1590.23,0.600353
1590.72,0.600608
1591.21,0.600914
1591.7,0.600914
1592.19,0.601067
1592.67,0.601475
1593.16,0.601577
1593.65,0.601526
1594.14,0.601781
1594.63,0.601985
1595.12,0.601934
1595.61,0.602138
1596.11,0.602648
1596.6,0.60275
1597.09,0.602852
1597.58,0.60326
1598.08,0.603566
1598.57,0.603464
1599.06,0.603719
1599.55,0.603769
1600.05,0.603973
1600.54,0.604126
1601.04,0.604381
1601.53,0.604687
1602.03,0.604891
1602.52,0.604942
1603.02,0.605197
1603.51,0.605452
1604.01,0.605605
1604.5,0.605758
1605.0,0.606013
1605.5,0.606217
1606.0,0.606523
1606.49,0.606727
1606.99,0.606778
1607.49,0.606982
1607.99,0.607237
1608.49,0.60739
1608.99,0.60739
1609.49,0.60739
1609.99,0.607849
1610.49,0.608104
1610.99,0.608359
1611.49,0.608614
1611.99,0.609021
1612.49,0.609123
1612.99,0.609072
1613.49,0.609174
1614.0,0.609582
1614.5,0.609786
1615.0,0.609888
1615.51,0.610143
1616.01,0.610245
1616.51,0.610449
1617.02,0.610806
1617.52,0.610959
1618.03,0.610908
1618.53,0.611112
1619.04,0.611418
1619.54,0.611469
1620.05,0.611826
1620.55,0.611979
1621.06,0.612285
1621.57,0.612744
1622.08,0.612897
1622.58,0.612948
1623.09,0.612897
1623.6,0.61305
1624.11,0.613356
1624.62,0.613458
1625.13,0.613509
1625.64,0.613814
1626.15,0.614171
1626.66,0.614222
1627.17,0.614528
1627.68,0.614783
1628.19,0.614834
1628.7,0.614987
1629.21,0.61514
1629.72,0.615242
1630.24,0.615242
1630.75,0.615344
1631.26,0.615446
1631.78,0.615854
1632.29,0.615803
1632.8,0.615803
1633.32,0.616058
1633.83,0.616415
1634.35,0.61667
1634.86,0.616874
1635.38,0.616976
1635.9,0.617078
1636.41,0.617588
1636.93,0.617435
1637.45,0.617231
1637.96,0.617384
1638.48,0.617588
1639.0,0.61769
1639.52,0.618098
1640.04,0.618455
1640.56,0.618404
1641.08,0.618505
1641.59,0.61871
1642.11,0.618607
1642.63,0.61871
1643.16,0.618862
1643.68,0.618862
1644.2,0.619372
1644.72,0.619627
1645.24,0.619729
1645.76,0.619984
1646.29,0.619831
1646.81,0.619627
1647.33,0.619729
1647.86,0.619933
1648.38,0.620035
1648.9,0.619984
1649.43,0.620035
1649.95,0.620188
1650.48,0.620392
1651.0,0.620647
1651.53,0.620953
1652.06,0.6208
1652.58,0.620851
1653.11,0.621208
1653.64,0.621259
1654.17,0.62131
1654.69,0.621412
1655.22,0.621514
1655.75,0.621667
1656.28,0.62182
1656.81,0.622126
1657.34,0.622483
1657.87,0.62233
1658.4,0.622432
1658.93,0.622636
1659.46,0.622585
1659.99,0.622636
1660.52,0.622891
1661.05,0.623095
1661.59,0.623044
1662.12,0.623095
1662.65,0.623197
1663.19,0.62335
1663.72,0.623554
1664.26,0.623604
1664.79,0.623757
1665.32,0.624012
1665.86,0.624114
1666.39,0.624318
1666.93,0.62442
1667.47,0.624471
1668.0,0.624471
1668.54,0.624726
1669.08,0.62493
1669.61,0.625032
1670.15,0.625134
1670.69,0.625338
1671.23,0.625491
1671.77,0.625644
1672.31,0.625899
1672.85,0.626052
1673.39,0.626154
1673.93,0.626103
1674.47,0.626358
1675.01,0.626613
1675.55,0.626562
1676.09,0.626715
1676.64,0.626766
1677.18,0.626868
1677.72,0.627276
1678.26,0.627582
1678.81,0.627684
1679.35,0.627735
1679.89,0.627582
1680.44,0.627888
1680.98,0.628194
1681.53,0.628245
1682.07,0.628347
1682.62,0.628245
1683.17,0.628398
1683.71,0.628449
1684.26,0.628449
1684.81,0.628398
1685.36,0.628601
1685.9,0.628856
1686.45,0.629009
1687.0,0.629315
1687.55,0.629723
1688.1,0.629723
1688.65,0.629621
1689.2,0.629825
1689.75,0.629825
1690.3,0.63008
1690.85,0.630437
1691.41,0.630539
1691.96,0.63059
1692.51,0.630335
1693.06,0.630386
1693.61,0.63059
1694.17,0.630794
1694.72,0.630947
1695.28,0.630845
1695.83,0.630896
1696.39,0.630998
1696.94,0.631355
1697.5,0.631457
1698.05,0.63161
1698.61,0.631661
1699.17,0.63161
1699.72,0.631763
1700.28,0.631814
1700.84,0.631763
1701.4,0.631712
1701.95,0.631661
1702.51,0.631763
1703.07,0.631967
1703.63,0.632273
1704.19,0.632477
1704.75,0.632375
1705.31,0.632273
1705.88,0.632426
1706.44,0.632324
1707.0,0.632171
1707.56,0.632069
1708.12,0.63212
1708.69,0.63212
1709.25,0.632171
1709.81,0.632171
1710.38,0.632426
1710.94,0.63263
1711.51,0.63263
1712.07,0.63263
1712.64,0.63263
1713.2,0.632528
1713.77,0.632681
1714.34,0.632732
1714.9,0.632783
1715.47,0.632681
1716.04,0.632528
1716.61,0.632426
1717.18,0.632426
1717.74,0.632579
1718.31,0.632681
1718.88,0.632681
1719.45,0.63263
1720.02,0.632528
1720.59,0.632528
1721.17,0.63263
1721.74,0.63263
1722.31,0.632783
1722.88,0.632732
1723.45,0.63263
1724.03,0.632477
1724.6,0.632375
1725.18,0.632681
1725.75,0.63263
1726.33,0.632477
1726.9,0.632579
1727.48,0.632579
1728.05,0.63263
1728.63,0.632732
1729.2,0.632732
1729.78,0.632681
1730.36,0.632783
1730.94,0.632834
1731.51,0.632885
1732.09,0.632936
1732.67,0.632834
1733.25,0.632885
1733.83,0.632834
1734.41,0.63263
1734.99,0.63263
1735.57,0.632783
1736.15,0.632732
1736.73,0.632885
1737.32,0.632936
1737.9,0.632936
1738.48,0.632936
1739.07,0.632834
1739.65,0.632834
1740.23,0.632783
1740.82,0.632987
1741.4,0.633089
1741.99,0.633089
1742.57,0.633089
1743.16,0.633038
1743.74,0.633089
1744.33,0.633191
1744.92,0.633242
1745.51,0.63314
1746.09,0.633242
1746.68,0.633293
1747.27,0.63314
1747.86,0.63314
1748.45,0.63314
1749.04,0.633191
1749.63,0.63314
1750.22,0.633242
1750.81,0.633395
1751.4,0.633242
1751.99,0.633242
1752.59,0.633293
1753.18,0.633038
1753.77,0.633089
1754.37,0.633242
1754.96,0.633242
1755.56,0.633242
1756.15,0.633293
1756.74,0.63314
1757.34,0.632936
1757.94,0.632936
1758.53,0.632783
1759.13,0.632834
1759.73,0.632885
1760.32,0.632936
1760.92,0.632936
1761.52,0.633089
1762.12,0.633038
1762.72,0.632936
1763.32,0.632936
1763.92,0.632987
1764.52,0.633089
1765.12,0.633038
1765.72,0.63314
1766.32,0.633089
1766.92,0.63314
1767.53,0.633242
1768.13,0.633038
1768.73,0.633038
1769.34,0.632987
1769.94,0.632885
1770.55,0.632936
1771.15,0.632936
1771.76,0.632936
1772.36,0.633038
1772.97,0.633038
1773.57,0.632987
1774.18,0.632936
1774.79,0.632987
1775.4,0.632936
1776.0,0.632732
1776.61,0.632732
1777.22,0.632783
1777.83,0.632732
1778.44,0.632477
1779.05,0.632375
1779.66,0.632426
1780.27,0.632426
1780.88,0.632324
1781.5,0.632324
1782.11,0.632273
1782.72,0.632222
1783.33,0.632018
1783.95,0.63212
1784.56,0.632069
1785.18,0.631814
1785.79,0.631763
1786.41,0.631712
1787.02,0.63161
1787.64,0.631457
1788.26,0.631457
1788.87,0.631712
1789.49,0.63161
1790.11,0.63161
1790.73,0.631508
1791.35,0.631559
1791.96,0.631355
1792.58,0.631253
1793.21,0.631304
1793.83,0.631049
1794.45,0.630998
1795.07,0.631151
1795.69,0.630998
1796.31,0.630794
1796.93,0.630692
1797.56,0.630743
1798.18,0.630845
1798.8,0.630692
1799.43,0.630896
1800.05,0.630794
1800.68,0.630641
1801.3,0.630386
1801.93,0.630233
1802.56,0.630335
1803.18,0.630335
1803.81,0.630539
1804.44,0.630386
1805.07,0.630233
1805.7,0.630131
1806.33,0.629978
1806.95,0.630029
1807.58,0.630182
1808.22,0.629978
1808.85,0.629825
1809.48,0.629672
1810.11,0.629621
1810.74,0.629774
1811.38,0.630029
1812.01,0.629927
1812.64,0.629723
1813.28,0.629519
1813.91,0.629366
1814.55,0.629417
1815.18,0.629417
1815.82,0.629417
1816.45,0.62957
1817.09,0.629774
1817.73,0.629774
1818.36,0.62957
1819.0,0.629315
1819.64,0.629009
1820.28,0.629009
1820.92,0.629111
1821.56,0.629162
1822.2,0.629264
1822.84,0.629213
1823.48,0.629213
1824.12,0.629162
1824.76,0.62906
1825.41,0.628652
1826.05,0.628296
1826.69,0.628551
1827.34,0.628652
1827.98,0.628449
1828.63,0.628449
1829.27,0.6285
1829.92,0.628449
1830.56,0.628194
1831.21,0.628041
1831.86,0.628041
1832.5,0.627939
1833.15,0.627939
1833.8,0.627888
1834.45,0.627582
1835.1,0.627327
1835.75,0.627021
1836.4,0.627021
1837.05,0.62697
1837.7,0.626919
1838.35,0.627225
1839.01,0.626817
1839.66,0.626307
1840.31,0.62646
1840.96,0.626256
1841.62,0.625848
1842.27,0.626256
1842.93,0.626511
1843.58,0.626205
1844.24,0.625899
1844.9,0.625746
1845.55,0.625542
1846.21,0.624981
1846.87,0.624471
1847.53,0.624624
1848.18,0.624624
1848.84,0.624726
1849.5,0.624624
1850.16,0.624369
1850.82,0.624165
1851.48,0.623808
1852.14,0.623401
1852.81,0.622993
1853.47,0.62233
1854.13,0.62233
1854.8,0.622483
1855.46,0.621973
1856.12,0.621106
1856.79,0.620698
1857.45,0.620698
1858.12,0.620239
1858.79,0.619219
1859.45,0.618505
1860.12,0.6182
1860.79,0.617792
1861.46,0.61718
1862.12,0.616262
1862.79,0.615344
1863.46,0.614375
1864.13,0.61356
1864.8,0.612744
1865.48,0.611928
1866.15,0.610908
1866.82,0.609531
1867.49,0.608053
1868.16,0.60688
1868.84,0.605656
1869.51,0.604177
1870.19,0.602444
1870.86,0.60071
1871.54,0.599792
1872.21,0.598212
1872.89,0.596223
1873.56,0.594795
1874.24,0.593113
1874.92,0.590869
1875.6,0.588626
1876.28,0.586178
1876.96,0.583883
1877.64,0.581997
1878.32,0.579396
1879.0,0.576388
1879.68,0.573431
1880.36,0.570524
1881.04,0.567567
1881.73,0.564405
1882.41,0.560887
1883.09,0.556859
1883.78,0.552729
1884.46,0.548905
1885.15,0.544876
1885.83,0.540491
1886.52,0.535851
1887.21,0.531262
1887.89,0.526316
1888.58,0.521166
1889.27,0.515965
1889.96,0.510611
1890.65,0.505104
1891.34,0.499648
1892.03,0.494244
1892.72,0.488992
1893.41,0.48374
1894.1,0.478641
1894.79,0.473899
1895.49,0.469361
1896.18,0.464924
1896.87,0.460692
1897.57,0.456715
1898.26,0.453197
1898.96,0.449627
1899.65,0.446619
1900.35,0.444274
1901.05,0.44203
1901.74,0.439735
1902.44,0.437849
1903.14,0.436931
1903.84,0.436319
1904.54,0.435605
1905.24,0.435095
1905.94,0.435146
1906.64,0.435554
1907.34,0.436319
1908.04,0.437186
1908.75,0.438104
1909.45,0.439073
1910.15,0.440449
1910.86,0.441673
1911.56,0.442948
1912.27,0.444478
1912.97,0.445752
1913.68,0.447435
1914.39,0.449067
1915.09,0.450443
1915.8,0.45182
1916.51,0.453656
1917.22,0.455593
1917.93,0.457531
1918.64,0.459825
1919.35,0.462222
1920.06,0.464516
1920.77,0.467729
1921.48,0.471196
1922.19,0.47451
1922.91,0.477876
1923.62,0.481037
1924.33,0.484403
1925.05,0.487564
1925.76,0.490419
1926.48,0.493071
1927.19,0.495824
1927.91,0.498527
1928.63,0.501025
1929.35,0.503371
1930.07,0.505308
1930.78,0.507399
1931.5,0.509337
1932.22,0.510917
1932.94,0.512549
1933.66,0.514079
1934.39,0.515608
1935.11,0.516832
1935.83,0.517903
1936.55,0.519331
1937.28,0.520503
1938.0,0.521625
1938.73,0.522798
1939.45,0.524022
1940.18,0.524939
1940.9,0.525806
1941.63,0.526877
1942.36,0.527744
1943.09,0.528305
1943.81,0.529019
1944.54,0.529885
1945.27,0.530854
1946.0,0.531568
1946.73,0.532486
1947.47,0.533251
1948.2,0.533761
1948.93,0.534168
1949.66,0.534882
1950.4,0.535698
1951.13,0.536412
1951.86,0.537024
1952.6,0.537483
1953.34,0.537993
1954.07,0.538605
1954.81,0.539064
1955.55,0.539675
1956.29,0.540389
1957.02,0.540848
1957.76,0.541307
1958.5,0.541817
1959.24,0.542276
1959.98,0.542531
1960.72,0.543143
1961.47,0.543908
1962.21,0.544366
1962.95,0.544774
1963.7,0.545233
1964.44,0.545692
1965.18,0.546406
1965.93,0.546814
1966.67,0.547273
1967.42,0.547783
1968.17,0.547987
1968.92,0.548548
1969.66,0.54921
1970.41,0.549771
1971.16,0.55023
1971.91,0.55074
1972.66,0.551148
1973.41,0.551505
1974.16,0.552117
1974.92,0.55278
1975.67,0.553392
1976.42,0.554004
1977.18,0.554513
1977.93,0.554972
1978.69,0.555482
1979.44,0.555941
1980.2,0.556502
1980.95,0.557063
1981.71,0.557573
1982.47,0.558032
1983.23,0.558746
1983.99,0.559255
1984.74,0.559714
1985.51,0.560377
1986.27,0.56104
1987.03,0.56155
1987.79,0.562111
1988.55,0.562774
1989.32,0.563233
1990.08,0.563845
1990.84,0.564354
1991.61,0.564762
1992.37,0.565272
1993.14,0.565629
1993.9,0.566598
1994.67,0.567312
1995.44,0.567924
1996.21,0.568383
1996.98,0.568842
1997.75,0.569249
1998.52,0.56981
1999.29,0.570677
2000.06,0.571289
2000.83,0.57185
2001.6,0.572258
2002.38,0.57287
2003.15,0.573584
2003.93,0.574093
2004.7,0.574705
2005.48,0.575266
2006.25,0.575776
2007.03,0.576235
2007.81,0.576847
2008.58,0.577357
2009.36,0.577816
2010.14,0.578326
2010.92,0.578937
2011.7,0.579549
2012.48,0.58011
2013.26,0.580773
2014.05,0.581181
2014.83,0.581589
2015.61,0.58215
2016.4,0.582558
2017.18,0.583068
2017.97,0.583578
2018.75,0.583985
2019.54,0.584444
2020.32,0.585005
2021.11,0.585362
2021.9,0.58577
2022.69,0.58628
2023.48,0.586688
2024.27,0.586943
2025.06,0.587351
2025.85,0.587657
2026.64,0.587912
2027.44,0.58832
2028.23,0.588727
2029.02,0.589084
2029.82,0.589645
2030.61,0.590053
2031.41,0.590155
2032.2,0.590359
2033.0,0.590512
2033.8,0.590716
2034.6,0.591175
2035.4,0.591532
2036.2,0.591634
2037.0,0.592042
2037.8,0.592348
2038.6,0.592552
2039.4,0.592603
2040.2,0.592705
2041.01,0.592909
2041.81,0.593266
2042.61,0.59347
2043.42,0.593571
2044.22,0.593674
2045.03,0.593776
2045.84,0.593928
2046.65,0.59403
2047.46,0.594132
2048.26,0.594081
2049.07,0.594081
2049.88,0.594132
2050.69,0.594285
2051.51,0.594336
2052.32,0.594336
2053.13,0.594387
2053.94,0.594387
2054.76,0.594336
2055.57,0.594438
2056.39,0.594387
2057.2,0.594183
2058.02,0.594132
2058.84,0.594132
2059.66,0.594081
2060.48,0.593877
2061.29,0.593521
2062.11,0.593266
2062.94,0.593368
2063.76,0.593419
2064.58,0.59296
2065.4,0.592603
2066.22,0.59245
2067.05,0.592246
2067.87,0.59194
2068.7,0.591889
2069.52,0.591787
2070.35,0.591481
2071.18,0.591124
2072.0,0.590818
2072.83,0.590563
2073.66,0.590257
2074.49,0.590002
2075.32,0.589645
2076.15,0.589339
2076.98,0.589135
2077.82,0.588982
2078.65,0.588727
2079.48,0.588371
2080.32,0.587912
2081.15,0.587657
2081.99,0.587351
2082.83,0.587147
2083.66,0.587096
2084.5,0.586841
2085.34,0.586484
2086.18,0.586178
2087.02,0.586076
2087.86,0.585872
2088.7,0.585566
2089.54,0.58526
2090.39,0.584954
2091.23,0.584852
2092.07,0.584852
2092.92,0.584597
2093.76,0.584444
2094.61,0.584291
2095.45,0.584087
2096.3,0.584087
2097.15,0.584036
2098.0,0.583883
2098.85,0.583883
2099.7,0.583782
2100.55,0.583833
2101.4,0.583833
2102.25,0.583934
2103.1,0.583985
2103.96,0.583883
2104.81,0.583782
2105.67,0.583833
2106.52,0.583833
2107.38,0.583883
2108.24,0.583985
2109.09,0.584036
2109.95,0.584036
2110.81,0.58424
2111.67,0.584189
2112.53,0.584189
2113.39,0.584342
2114.25,0.584546
2115.12,0.584648
2115.98,0.584648
2116.84,0.583698
2117.71,0.582854
2118.58,0.582959
2119.44,0.583223
2120.31,0.583329
2121.18,0.583434
2122.04,0.583118
2122.91,0.582695
2123.78,0.58259
2124.65,0.582642
2125.52,0.582431
2126.4,0.582115
2127.27,0.581798
2128.14,0.58164
2129.02,0.581323
2129.89,0.581164
2130.77,0.581059
2131.64,0.580848
2132.52,0.580109
2133.4,0.579898
2134.27,0.578895
2135.15,0.578209
2136.03,0.577681
2136.91,0.577258
2137.79,0.576256
2138.68,0.576414
2139.56,0.57615
2140.44,0.575147
2141.33,0.574619
2142.21,0.574408
2143.1,0.573986
2143.99,0.573088
2144.87,0.572033
2145.76,0.571347
2146.65,0.570766
2147.54,0.570291
2148.43,0.569288
2149.32,0.568866
2150.21,0.567863
2151.1,0.567124
2151.99,0.565962
2152.89,0.56496
2153.78,0.564221
2154.68,0.562743
2155.57,0.56137
2156.47,0.559945
2157.37,0.558045
2158.27,0.556039
2159.16,0.55398
2160.06,0.55171
2160.96,0.549652
2161.86,0.547065
2162.77,0.543793
2163.67,0.540837
2164.57,0.537511
2165.48,0.534661
2166.38,0.532074
2167.29,0.528854
2168.2,0.525423
2169.1,0.522256
2170.01,0.518984
2170.92,0.515922
2171.83,0.513072
2172.74,0.510168
2173.65,0.50679
2174.56,0.504045
2175.47,0.501248
2176.39,0.498081
2177.3,0.495336
2178.22,0.492327
2179.13,0.489424
2180.05,0.486732
2180.96,0.484357
2181.88,0.481717
2182.8,0.478445
2183.72,0.475436
2184.64,0.473008
2185.56,0.470316
2186.48,0.467888
2187.41,0.465882
2188.33,0.46319
2189.25,0.460603
2190.18,0.458439
2191.1,0.456592
2192.03,0.454902
2192.96,0.45258
2193.89,0.450574
2194.82,0.449043
2195.74,0.446879
2196.68,0.44519
2197.61,0.443818
2198.54,0.442709
2199.47,0.441389
2200.4,0.440281
2201.34,0.439225
2202.28,0.438539
2203.21,0.43817
2204.15,0.438117
2205.08,0.438433
2206.02,0.43875
2206.96,0.438592
2207.9,0.439225
2208.84,0.44007
2209.78,0.44102
2210.73,0.442551
2211.67,0.444345
2212.61,0.445718
2213.56,0.447565
2214.5,0.449466
2215.45,0.451524
2216.4,0.4539
2217.35,0.456433
2218.3,0.458492
2219.24,0.460445
2220.2,0.462873
2221.15,0.464826
2222.1,0.466621
2223.05,0.468732
2224.0,0.47021
2224.96,0.471794
2225.91,0.473694
2226.87,0.474802
2227.83,0.475647
2228.79,0.477019
2229.74,0.47855
2230.7,0.480028
2231.66,0.481348
2232.63,0.482615
2233.59,0.48404
2234.55,0.485148
2235.51,0.485993
2236.48,0.487524
2237.44,0.489107
2238.41,0.490427
2239.38,0.491746
2240.34,0.493805
2241.31,0.495336
2242.28,0.496972
2243.25,0.499506
2244.22,0.501881
2245.19,0.503782
2246.17,0.505471
2247.14,0.507001
2248.12,0.508638
2249.09,0.510644
2250.07,0.51228
2251.04,0.513811
2252.02,0.515658
2253.0,0.517189
2253.98,0.51835
2254.96,0.519142
2255.94,0.520145
2256.92,0.520937
2257.91,0.521781
2258.89,0.522731
2259.88,0.523734
2260.86,0.524209
2261.85,0.524948
2262.83,0.525107
2263.82,0.525265
2264.81,0.525529
2265.8,0.525898
2266.79,0.525898
2267.78,0.526004
2268.78,0.52574
2269.77,0.525951
2270.76,0.526057
2271.76,0.525582
2272.75,0.524896
2273.75,0.524684
2274.75,0.524209
2275.75,0.523206
2276.75,0.522679
2277.75,0.522784
2278.75,0.522362
2279.75,0.521517
2280.75,0.520778
2281.76,0.520198
2282.76,0.518984
2283.77,0.518086
2284.77,0.517506
2285.78,0.516714
2286.79,0.515447
2287.8,0.514444
2288.81,0.5136
2289.82,0.512491
2290.83,0.511488
2291.84,0.510802
2292.86,0.510116
2293.87,0.508954
2294.89,0.507476
2295.91,0.506157
2296.92,0.505048
2297.94,0.504204
2298.96,0.503095
2299.98,0.501881
2301.0,0.500562
2302.02,0.499611
2303.04,0.498872
2304.07,0.497764
2305.09,0.496655
2306.12,0.495283
2307.15,0.49428
2308.17,0.493224
2309.2,0.491799
2310.23,0.491007
2311.26,0.489741
2312.29,0.489318
2313.32,0.488632
2314.35,0.48784
2315.39,0.486732
2316.42,0.485623
2317.46,0.484673
2318.5,0.484093
2319.53,0.482984
2320.57,0.482298
2321.61,0.481612
2322.65,0.480609
2323.69,0.479606
2324.73,0.478709
2325.78,0.477706
2326.82,0.477125
2327.86,0.476228
2328.91,0.475014
2329.96,0.4738
2331.01,0.472744
2332.05,0.471741
2333.1,0.471107
2334.15,0.469893
2335.21,0.468521
2336.26,0.467096
2337.31,0.465776
2338.36,0.464615
2339.42,0.462979
2340.48,0.461395
2341.53,0.460128
2342.59,0.458861
2343.65,0.457647
2344.71,0.456644
2345.77,0.4558
2346.83,0.454691
2347.9,0.453794
2348.96,0.452738
2350.02,0.451524
2351.09,0.450574
2352.16,0.44973
2353.23,0.448463
2354.29,0.447618
2355.36,0.447037
2356.43,0.446246
2357.51,0.444926
2358.58,0.444029
2359.65,0.443184
2360.73,0.442498
2361.8,0.441812
2362.88,0.441178
2363.96,0.440439
2365.03,0.439806
2366.11,0.439225
2367.19,0.438539
2368.27,0.437431
2369.36,0.436797
2370.44,0.436428
2371.53,0.436164
2372.61,0.435372
2373.7,0.434263
2374.78,0.433577
2375.87,0.433049
2376.96,0.432733
2378.05,0.432205
2379.14,0.43136
2380.24,0.430727
2381.33,0.429988
2382.42,0.429302
2383.52,0.428351
2384.61,0.427613
2385.71,0.426768
2386.81,0.426029
2387.91,0.425396
2389.01,0.424868
2390.11,0.424129
2391.22,0.42339
2392.32,0.422598
2393.42,0.422017
2394.53,0.421489
2395.64,0.420962
2396.74,0.420328
2397.85,0.419748
2398.96,0.419272
2400.07,0.418692
2401.18,0.418058
2402.3,0.417478
2403.41,0.41695
2404.52,0.416633
2405.64,0.416158
2406.76,0.415102
2407.88,0.414311
2408.99,0.413783
2410.11,0.413308
2411.23,0.412622
2412.36,0.411935
2413.48,0.411566
2414.6,0.410932
2415.73,0.409929
2416.85,0.408927
2417.98,0.408188
2419.11,0.407501
2420.24,0.406921
2421.37,0.406076
2422.5,0.405179
2423.64,0.404387
2424.77,0.403595
2425.9,0.402434
2427.04,0.401484
2428.18,0.400639
2429.31,0.399848
2430.45,0.399056
2431.59,0.398581
2432.73,0.397525
2433.88,0.396364
2435.02,0.395466
2436.16,0.394516
2437.31,0.393461
2438.45,0.392774
2439.6,0.391771
2440.75,0.39098
2441.9,0.390346
2443.05,0.389238
2444.2,0.388235
2445.35,0.387707
2446.51,0.387074
2447.67,0.386387
2448.82,0.385543
2449.98,0.385068
2451.14,0.384382
2452.3,0.383748
2453.46,0.383273
2454.62,0.382851
2455.78,0.382587
2456.94,0.382112
2458.11,0.381373
2459.28,0.380792
2460.44,0.380686
2461.61,0.380581
2462.78,0.380159
2463.95,0.379736
2465.12,0.379684
2466.3,0.379578
2467.47,0.378945
2468.65,0.378733
2469.82,0.378628
2471.0,0.378786
2472.18,0.378575
2473.36,0.37847
2474.54,0.37847
2475.72,0.37847
2476.9,0.378258
2478.08,0.3781
2479.27,0.377994
2480.46,0.377942
2481.64,0.377836
2482.83,0.377519
2484.02,0.377097
2485.21,0.377097
2486.4,0.377044
2487.6,0.376622
2488.79,0.375989
2489.99,0.375619
2491.18,0.375302
2492.38,0.375091
2493.58,0.374458
2494.78,0.37393
2495.98,0.373455
2497.18,0.373244
2498.39,0.37261
2499.59,0.371766
2500.8,0.37108
2502.01,0.370552
2503.21,0.369918
2504.42,0.369443
2505.63,0.368704
2506.84,0.368335
2508.06,0.368018
2509.27,0.367701
2510.49,0.367121
2511.7,0.366435
2512.92,0.36559
2514.14,0.365379
2515.36,0.365062
2516.58,0.36464
2517.8,0.364006
2519.03,0.363426
2520.25,0.362845
2521.48,0.36237
2522.7,0.361737
2523.93,0.361526
2525.16,0.361103
2526.39,0.360786
2527.62,0.360259
2528.86,0.359309
2530.09,0.358464
2531.33,0.3582
2532.56,0.357883
2533.8,0.357355
2535.04,0.356511
2536.28,0.3563
2537.52,0.3563
2538.76,0.355983
2540.01,0.355666
2541.25,0.355086
2542.5,0.354716
2543.75,0.354769
2544.99,0.354663
2546.24,0.354083
2547.49,0.353555
2548.75,0.353608
2550.0,0.353185
2551.26,0.352763
2552.51,0.352499
2553.77,0.352499
2555.03,0.35213
2556.29,0.351813
2557.55,0.351444
2558.81,0.350757
2560.08,0.349332
2561.34,0.348646
2562.61,0.348435
2563.88,0.348593
2565.14,0.349121
2566.41,0.349385
2567.68,0.348699
2568.96,0.347537
2570.23,0.34759
2571.51,0.347643
2572.78,0.346271
2574.06,0.346904
2575.34,0.346482
2576.62,0.345584
2577.9,0.345637
2579.18,0.345479
2580.47,0.344529
2581.75,0.344054
2583.04,0.342259
2584.32,0.342681
2585.61,0.342787
2586.9,0.341731
2588.2,0.341467
2589.49,0.341362
2590.78,0.341098
2592.08,0.339303
2593.37,0.335133
2594.67,0.333391
2595.97,0.33603
2597.27,0.33735
2598.57,0.337139
2599.88,0.335766
2601.18,0.33413
2602.49,0.332969
2603.79,0.331121
2605.1,0.329643
2606.41,0.329643
2607.72,0.329379
2609.03,0.328535
2610.35,0.328218
2611.66,0.327426
2612.98,0.326107
2614.3,0.325104
2615.62,0.322728
2616.94,0.321409
2618.26,0.321198
2619.58,0.318928
2620.91,0.318875
2622.23,0.319245
2623.56,0.318136
2624.89,0.315919
2626.22,0.313808
2627.55,0.313385
2628.88,0.311168
2630.21,0.309321
2631.55,0.309585
2632.89,0.30816
2634.22,0.307104
2635.56,0.306365
2636.9,0.305045
2638.25,0.303567
2639.59,0.302195
2640.93,0.300611
2642.28,0.298922
2643.63,0.297286
2644.98,0.295333
2646.33,0.294172
2647.68,0.293222
2649.03,0.291532
2650.39,0.289527
2651.74,0.287098
2653.1,0.285304
2654.46,0.283456
2655.82,0.281767
2657.18,0.27992
2658.54,0.277175
2659.9,0.274747
2661.27,0.272424
2662.64,0.269785
2664.01,0.265773
2665.38,0.262395
2666.74,0.259809
2668.12,0.257486
2669.49,0.252788
2670.87,0.249938
2672.24,0.247932
2673.62,0.243762
2675.0,0.2388
2676.38,0.233522
2677.76,0.228401
2679.15,0.222806
2680.54,0.216947
2681.92,0.209029
2683.31,0.200056
2684.7,0.189974
2686.09,0.178994
2687.48,0.167487
2688.88,0.15598
2690.27,0.144684
2691.67,0.134127
2693.07,0.124203
2694.47,0.115969
2695.87,0.109107
2697.27,0.103195
2698.67,0.097811
2700.08,0.093007
2701.49,0.088679
2702.9,0.08509
2704.31,0.081447
2705.72,0.078122
2707.13,0.074902
2708.54,0.071629
2709.96,0.068146
2711.38,0.064979
2712.8,0.062128
2714.22,0.059067
2715.64,0.055741
2717.06,0.052838
2718.49,0.049829
2719.91,0.046926
2721.34,0.044498
2722.77,0.042598
2724.2,0.040381
2725.63,0.03848
2727.07,0.036844
2728.5,0.035419
2729.94,0.033941
2731.38,0.032463
2732.82,0.031407
2734.26,0.03051
2735.7,0.02956
2737.15,0.028451
2738.59,0.027079
2740.04,0.02634
2741.49,0.02597
2742.94,0.02539
2744.39,0.024756
2745.84,0.024123
2747.3,0.023648
2748.76,0.023278
2750.21,0.022962
2751.67,0.022909
2753.14,0.02275
2754.6,0.022592
2756.06,0.02275
2757.53,0.023067
2759.0,0.023225
2760.46,0.023489
2761.94,0.023753
2763.41,0.024017
2764.88,0.024334
2766.36,0.024756
2767.83,0.025442
2769.31,0.026234
2770.79,0.027026
2772.27,0.027712
2773.76,0.028504
2775.24,0.029401
2776.73,0.030351
2778.22,0.031196
2779.71,0.032199
2781.2,0.033677
2782.69,0.035208
2784.18,0.036316
2785.68,0.037372
2787.18,0.038586
2788.68,0.039747
2790.18,0.041014
2791.68,0.042175
2793.19,0.042914
2794.69,0.043389
2796.2,0.044023
2797.71,0.044603
2799.22,0.044815
2800.73,0.04492
2802.24,0.04492
2803.76,0.045026
2805.28,0.045237
2806.8,0.045554
2808.32,0.046081
2809.84,0.046768
2811.36,0.047401
2812.89,0.048193
2814.42,0.048826
2815.94,0.049512
2817.48,0.050515
2819.01,0.051835
2820.54,0.052944
2822.08,0.054105
2823.61,0.055213
2825.15,0.056111
2826.69,0.057166
2828.23,0.058116
2829.78,0.05875
2831.32,0.059594
2832.87,0.060175
2834.42,0.060597
2835.97,0.06102
2837.52,0.061442
2839.08,0.061864
2840.63,0.062286
2842.19,0.062656
2843.75,0.062867
2845.31,0.06292
2846.87,0.063025
2848.44,0.063289
2850.0,0.063606
2851.57,0.063712
2853.14,0.06387
2854.71,0.063976
2856.28,0.063923
2857.86,0.064187
2859.43,0.064398
2861.01,0.064345
2862.59,0.064292
2864.17,0.064451
2865.76,0.064609
2867.34,0.064503
2868.93,0.064556
2870.52,0.064767
2872.11,0.064767
2873.7,0.064662
2875.29,0.064662
2876.89,0.064873
2878.49,0.065084
2880.08,0.065084
2881.69,0.064979
2883.29,0.065084
2884.89,0.064979
2886.5,0.064873
2888.11,0.064926
2889.72,0.065084
2891.33,0.065242
2892.94,0.065295
2894.56,0.065295
2896.17,0.065348
2897.79,0.065348
2899.42,0.065242
2901.04,0.065295
2902.66,0.065348
2904.29,0.065612
2905.92,0.06577
2907.55,0.065823
2909.18,0.06577
2910.81,0.06577
2912.45,0.065823
2914.08,0.066034
2915.72,0.066034
2917.36,0.06614
2919.01,0.066245
2920.65,0.066087
2922.3,0.065876
2923.94,0.066087
2925.59,0.066245
2927.25,0.066404
2928.9,0.066509
2930.56,0.066615
2932.21,0.066615
2933.87,0.066615
2935.53,0.06672
2937.2,0.066984
2938.86,0.067248
2940.53,0.067301
2942.2,0.067354
2943.87,0.067459
2945.54,0.067565
2947.22,0.067723
2948.89,0.067882
2950.57,0.067934
2952.25,0.068093
2953.93,0.068251
2955.62,0.06841
2957.3,0.068515
2958.99,0.068673
2960.68,0.068832
2962.37,0.069096
2964.07,0.069307
2965.76,0.06936
2967.46,0.069571
2969.16,0.069782
2970.86,0.070099
2972.56,0.070363
2974.27,0.070679
2975.98,0.070838
2977.69,0.071207
2979.4,0.071471
2981.11,0.071629
2982.83,0.071946
2984.54,0.072316
2986.26,0.072632
2987.98,0.072949
2989.71,0.073266
2991.43,0.073583
2993.16,0.073794
2994.89,0.074058
2996.62,0.074533
2998.35,0.074797
3000.09,0.075166
3001.83,0.075536
3003.57,0.075694
3005.31,0.076063
3007.05,0.076591
3008.79,0.076908
3010.54,0.077225
3012.29,0.077594
3014.04,0.077858
3015.8,0.078333
3017.55,0.078755
3019.31,0.079125
3021.07,0.079389
3022.83,0.079706
3024.59,0.080128
3026.36,0.080339
3028.13,0.080497
3029.9,0.080708
3031.67,0.08092
3033.44,0.081184
3035.22,0.0815
3037.0,0.08187
3038.78,0.082028
3040.56,0.082134
3042.34,0.082292
3044.13,0.082503
3045.92,0.08282
3047.71,0.083084
3049.5,0.083031
3051.3,0.082925
3053.09,0.083084
3054.89,0.083348
3056.69,0.083401
3058.5,0.083401
3060.3,0.083453
3062.11,0.083559
3063.92,0.083664
3065.73,0.083717
3067.55,0.08377
3069.36,0.08377
3071.18,0.083928
3073.0,0.084192
3074.82,0.084245
3076.65,0.084192
3078.48,0.084245
3080.31,0.084403
3082.14,0.084615
3083.97,0.084879
3085.8,0.08509
3087.64,0.085248
3089.48,0.085459
3091.33,0.08567
3093.17,0.085934
3095.02,0.086198
3096.87,0.086568
3098.72,0.086937
3100.57,0.087359
3102.43,0.087782
3104.28,0.088204
3106.14,0.088521
3108.01,0.088943
3109.87,0.089471
3111.74,0.089946
3113.61,0.090421
3115.48,0.091002
3117.35,0.091741
3119.23,0.092321
3121.1,0.092955
3122.98,0.093588
3124.87,0.094327
3126.75,0.095066
3128.64,0.095858
3130.53,0.09665
3132.42,0.097494
3134.31,0.098286
3136.21,0.099025
3138.11,0.099817
3140.01,0.100714
3141.91,0.101664
3143.82,0.102562
3145.73,0.103248
3147.64,0.10404
3149.55,0.104884
3151.46,0.105676
3153.38,0.10652
3155.3,0.107365
3157.22,0.108368
3159.14,0.109318
3161.07,0.110004
3163.0,0.110902
3164.93,0.111746
3166.86,0.112696
3168.8,0.113752
3170.74,0.114702
3172.68,0.115494
3174.62,0.116338
3176.56,0.117341
3178.51,0.118344
3180.46,0.119294
3182.42,0.12035
3184.37,0.121459
3186.33,0.122409
3188.29,0.123201
3190.25,0.124098
3192.21,0.125206
3194.18,0.126157
3196.15,0.127107
3198.12,0.128215
3200.09,0.129271
3202.07,0.130221
3204.05,0.131277
3206.03,0.132385
3208.02,0.133388
3210.0,0.134338
3211.99,0.135288
3213.98,0.136291
3215.98,0.137241
3217.97,0.138297
3219.97,0.139458
3221.97,0.140725
3223.98,0.141728
3225.98,0.142731
3227.99,0.143892
3230.0,0.144842
3232.02,0.145898
3234.03,0.147112
3236.05,0.148273
3238.07,0.149382
3240.1,0.150543
3242.12,0.151705
3244.15,0.152655
3246.18,0.15371
3248.22,0.154977
3250.25,0.156138
3252.29,0.157247
3254.33,0.158355
3256.38,0.159464
3258.43,0.160625
3260.47,0.161681
3262.53,0.162789
3264.58,0.164003
3266.64,0.16527
3268.7,0.166432
3270.76,0.16754
3272.82,0.168701
3274.89,0.16981
3276.96,0.171024
3279.04,0.172132
3281.11,0.173241
3283.19,0.174508
3285.27,0.175722
3287.35,0.176936
3289.44,0.178044
3291.53,0.179311
3293.62,0.180578
3295.71,0.181475
3297.81,0.182531
3299.91,0.183851
3302.01,0.18517
3304.11,0.186279
3306.22,0.187335
3308.33,0.188654
3310.44,0.189763
3312.56,0.190924
3314.68,0.192138
3316.8,0.193352
3318.92,0.19446
3321.05,0.195569
3323.18,0.19673
3325.31,0.197892
3327.44,0.199106
3329.58,0.20032
3331.72,0.201375
3333.86,0.202431
3336.01,0.20354
3338.16,0.204542
3340.31,0.205651
3342.46,0.206654
3344.61,0.20771
3346.77,0.208924
3348.94,0.210032
3351.1,0.210982
3353.27,0.212091
3355.44,0.213146
3357.61,0.214097
3359.79,0.215099
3361.97,0.216102
3364.15,0.217105
3366.33,0.21795
3368.52,0.218689
3370.71,0.219533
3372.9,0.220431
3375.1,0.221223
3377.3,0.22212
3379.5,0.223017
3381.71,0.223915
3383.91,0.224918
3386.12,0.225973
3388.34,0.227082
3390.55,0.22819
3392.77,0.229299
3394.99,0.230249
3397.22,0.230724
3399.45,0.231146
3401.68,0.231621
3403.91,0.231938
3406.15,0.231938
3408.39,0.23178
3410.63,0.231568
3412.87,0.23141
3415.12,0.231357
3417.37,0.231727
3419.63,0.232888
3421.88,0.235105
3424.14,0.237955
3426.41,0.240753
3428.67,0.243392
3430.94,0.245662
3433.21,0.247668
3435.49,0.249568
3437.77,0.251363
3440.05,0.252946
3442.33,0.254424
3444.62,0.255902
3446.91,0.257328
3449.2,0.2587
3451.5,0.260072
3453.8,0.261339
3456.1,0.262501
3458.41,0.26382
3460.72,0.26514
3463.03,0.266301
3465.34,0.267304
3467.66,0.268413
3469.98,0.269363
3472.31,0.270049
3474.63,0.270682
3476.96,0.271474
3479.3,0.27216
3481.64,0.272899
3483.97,0.273902
3486.32,0.274852
3488.66,0.275433
3491.01,0.275591
3493.36,0.275539
3495.72,0.275169
3498.08,0.274588
3500.44,0.274272
3502.81,0.274747
3505.18,0.276172
3507.55,0.278336
3509.92,0.280817
3512.3,0.28314
3514.68,0.285198
3517.06,0.287098
3519.45,0.28884
3521.84,0.290582
3524.24,0.292219
3526.64,0.293961
3529.04,0.295491
3531.44,0.297022
3533.85,0.298447
3536.26,0.29982
3538.67,0.301139
3541.09,0.302459
3543.51,0.30362
3545.93,0.304729
3548.36,0.305837
3550.79,0.306946
3553.22,0.308107
3555.66,0.30911
3558.1,0.310113
3560.54,0.311168
3562.99,0.312066
3565.44,0.313016
3567.9,0.313913
3570.35,0.314863
3572.81,0.315814
3575.28,0.316658
3577.75,0.317555
3580.22,0.318558
3582.69,0.319403
3585.17,0.320089
3587.65,0.320934
3590.14,0.321726
3592.62,0.322412
3595.11,0.323309
3597.61,0.324101
3600.11,0.324787
3602.61,0.325526
3605.11,0.326265
3607.62,0.326898
3610.14,0.327532
3612.65,0.328165
3615.17,0.328799
3617.69,0.329432
3620.22,0.330013
3622.75,0.330541
3625.28,0.331016
3627.82,0.331544
3630.36,0.332071
3632.9,0.332441
3635.45,0.332863
3638.0,0.333338
3640.56,0.333866
3643.12,0.334183
3645.68,0.334605
3648.24,0.334975
3650.81,0.335344
3653.39,0.335714
3655.96,0.336136
3658.54,0.336558
3661.13,0.337033
3663.71,0.337561
3666.3,0.337983
3668.9,0.338247
3671.5,0.338722
3674.1,0.33925
3676.7,0.339778
3679.31,0.3402
3681.93,0.340728
3684.54,0.341256
3687.17,0.341837
3689.79,0.342365
3692.42,0.342945
3695.05,0.343526
3697.69,0.344159
3700.32,0.344898
3702.97,0.345479
3705.61,0.345954
3708.27,0.34664
3710.92,0.347273
3713.58,0.348013
3716.24,0.348646
3718.91,0.349279
3721.58,0.349807
3724.25,0.350441
3726.93,0.351074
3729.61,0.351655
3732.29,0.352183
3734.98,0.352922
3737.67,0.353608
3740.37,0.354188
3743.07,0.354769
3745.78,0.355455
3748.49,0.35593
3751.2,0.356458
3753.91,0.356933
3756.63,0.357408
3759.36,0.357831
3762.09,0.358253
3764.82,0.358728
3767.55,0.359097
3770.29,0.359467
3773.04,0.359889
3775.78,0.360206
3778.54,0.36047
3781.29,0.360786
3784.05,0.361103
3786.82,0.361314
3789.59,0.361526
3792.36,0.361578
3795.13,0.361789
3797.92,0.361948
3800.7,0.362264
3803.49,0.362528
3806.28,0.36274
3809.08,0.363056
3811.88,0.363373
3814.68,0.363637
3817.49,0.363795
3820.31,0.363901
3823.12,0.364165
3825.94,0.364429
3828.77,0.364745
3831.6,0.364851
3834.43,0.364851
3837.27,0.365009
3840.11,0.36522
3842.96,0.365273
3845.81,0.365379
3848.67,0.365537
3851.53,0.365643
3854.39,0.365696
3857.26,0.365748
3860.13,0.365748
3863.01,0.365748
3865.89,0.365748
3868.77,0.365643
3871.66,0.36559
3874.55,0.365643
3877.45,0.365643
3880.35,0.36559
3883.26,0.365379
3886.17,0.365273
3889.09,0.365168
3892.01,0.365062
3894.93,0.364798
3897.86,0.364534
3900.79,0.364323
3903.73,0.364059
3906.67,0.363901
3909.62,0.363742
3912.57,0.363373
3915.52,0.362951
3918.48,0.362634
3921.45,0.362264
3924.42,0.361789
3927.39,0.361526
3930.37,0.361209
3933.35,0.361103
3936.34,0.36105
3939.33,0.360786
3942.32,0.360259
3945.32,0.359731
3948.33,0.359045
3951.34,0.358464
3954.35,0.357831
3957.37,0.357303
3960.39,0.35688
3963.42,0.356405
3966.45,0.355983
3969.49,0.355666
3972.53,0.355508
3975.58,0.35535
3978.63,0.355244
3981.68,0.355191
3984.75,0.355086
3987.81,0.354769
3990.88,0.354241
3993.95,0.353713
3997.03,0.353185
4000.12,0.352763
4003.21,0.352288
4006.3,0.351919
4009.4,0.351549
4012.5,0.351232
4015.61,0.350969
4018.72,0.350705
4021.84,0.350388
4024.96,0.350229
4028.09,0.349913
4031.22,0.349543
4034.36,0.349227
4037.5,0.349068
4040.65,0.348751
4043.8,0.348382
4046.96,0.348013
4050.12,0.34759
4053.29,0.347115
4056.46,0.34664
4059.64,0.346059
4062.82,0.345426
4066.0,0.344845
4069.19,0.344318
4072.39,0.343684
4075.59,0.343051
4078.8,0.342417
4082.01,0.341837
4085.23,0.341203
4088.45,0.340517
4091.68,0.339884
4094.91,0.339145
4098.15,0.338511
4101.39,0.337931
4104.63,0.337297
4107.89,0.336558
4111.14,0.335766
4114.41,0.335133
4117.67,0.334447
4120.95,0.333866
4124.23,0.333233
4127.51,0.332494
4130.8,0.331807
4134.09,0.331174
4137.39,0.330435
4140.7,0.329696
4144.01,0.329063
4147.32,0.328376
4150.64,0.327532
4153.97,0.326793
4157.3,0.326212
4160.64,0.325473
4163.98,0.324681
4167.33,0.32389
4170.68,0.323204
4174.04,0.322623
4177.4,0.321937
4180.77,0.321198
4184.14,0.320511
4187.52,0.319825
4190.91,0.319086
4194.3,0.318294
4197.69,0.317503
4201.1,0.316764
4204.5,0.316078
4207.92,0.31518
4211.34,0.31423
4214.76,0.313544
4218.19,0.312752
4221.62,0.311855
4225.06,0.311063
4228.51,0.310324
4231.96,0.309321
4235.42,0.308476
4238.88,0.30779
4242.35,0.307051
4245.83,0.306312
4249.31,0.305626
4252.79,0.304781
4256.28,0.303779
4259.78,0.302881
4263.29,0.302089
4266.79,0.301245
4270.31,0.300453
4273.83,0.299767
4277.35,0.299186
4280.89,0.298606
4284.42,0.297867
4287.97,0.297128
4291.52,0.296547
4295.07,0.295966
4298.63,0.295491
4302.2,0.294911
4305.78,0.294383
4309.35,0.293855
4312.94,0.293327
4316.53,0.292746
4320.13,0.292219
4323.73,0.291532
4327.34,0.291005
4330.96,0.290477
4334.58,0.289896
4338.21,0.28921
4341.84,0.288629
4345.48,0.288207
4349.12,0.287732
4352.77,0.287098
4356.43,0.286518
4360.1,0.285937
4363.76,0.285568
4367.44,0.285145
4371.12,0.284618
4374.81,0.28409
4378.51,0.283615
4382.21,0.283087
4385.92,0.282664
4389.63,0.282295
4393.35,0.281978
4397.08,0.28145
4400.81,0.281081
4404.55,0.280711
4408.29,0.280342
4412.04,0.280025
4415.8,0.279761
4419.57,0.279286
4423.34,0.278811
4427.12,0.278283
4430.9,0.277914
4434.69,0.277492
4438.49,0.276964
4442.29,0.27633
4446.1,0.275802
4449.92,0.275169
4453.74,0.274483
4457.57,0.273849
4461.41,0.273163
4465.25,0.272319
4469.1,0.271368
4472.95,0.270366
4476.82,0.269521
4480.69,0.268676
4484.56,0.267726
4488.44,0.266882
4492.33,0.26609
4496.23,0.265457
4500.13,0.264876
4504.04,0.264295
4507.96,0.26382
4511.88,0.263345
4515.81,0.263028
4519.75,0.262659
4523.69,0.262342
4527.65,0.26192
4531.6,0.261709
4535.57,0.26155
4539.54,0.261234
4543.52,0.260864
4547.5,0.2606
4551.5,0.260442
4555.5,0.260178
4559.5,0.259809
4563.52,0.259386
4567.54,0.258964
4571.56,0.258647
4575.6,0.258225
4579.64,0.257697
4583.69,0.257011
4587.75,0.25643
4591.81,0.255691
4595.88,0.2549
4599.96,0.254108
4604.04,0.253316
4608.14,0.252471
4612.24,0.25168
4616.34,0.250835
4620.46,0.250043
4624.58,0.249146
4628.71,0.248196
4632.84,0.247246
4636.99,0.246348
4641.14,0.245451
4645.3,0.244554
4649.47,0.243709
4653.64,0.24297
4657.82,0.242125
4662.01,0.241228
4666.21,0.240436
4670.41,0.239645
4674.62,0.238747
4678.84,0.237903
4683.07,0.237164
4687.3,0.23653
4691.54,0.235897
4695.79,0.235422
4700.05,0.235105
4704.31,0.234788
4708.59,0.234524
4712.87,0.234524
4717.15,0.234419
4721.45,0.234208
4725.76,0.233891
4730.07,0.233522
4734.39,0.232994
4738.72,0.23236
4743.05,0.231674
4747.39,0.230935
4751.75,0.230143
4756.1,0.229404
4760.47,0.228612
4764.85,0.227874
4769.23,0.227082
4773.62,0.226237
4778.02,0.225393
4782.43,0.224812
4786.85,0.224495
4791.27,0.224548
4795.7,0.224759
4800.14,0.22497
4804.59,0.224918
4809.05,0.224759
4813.51,0.224601
4817.99,0.22439
4822.47,0.22402
4826.96,0.223651
4831.46,0.223176
4835.96,0.222701
4840.48,0.22212
4845.0,0.221539
4849.54,0.220906
4854.08,0.22022
4858.63,0.219533
4863.18,0.2189
4867.75,0.218267
4872.33,0.217475
4876.91,0.216577
4881.5,0.21568
4886.1,0.21473
4890.71,0.213674
4895.33,0.21246
4899.96,0.211299
4904.59,0.210032
4909.24,0.208607
4913.89,0.207235
4918.55,0.205862
4923.22,0.204331
4927.9,0.202801
4932.59,0.201217
4937.29,0.199686
4942.0,0.198103
4946.71,0.196466
4951.44,0.194724
4956.17,0.19293
4960.91,0.190977
4965.67,0.189024
4970.43,0.187071
4975.2,0.185223
4979.98,0.183481
4984.76,0.181792
4989.56,0.18005
4994.37,0.178255
4999.18,0.176514
5004.01,0.174772
5008.84,0.17303
5013.69,0.171393
5018.54,0.169757
5023.4,0.168173
5028.28,0.166696
5033.16,0.16527
5038.05,0.163845
5042.95,0.162525
5047.86,0.161206
5052.78,0.159992
5057.71,0.158883
5062.65,0.157775
5067.6,0.156719
5072.56,0.155769
5077.53,0.154766
5082.5,0.153816
5087.49,0.153077
5092.49,0.152391
5097.5,0.151705
5102.51,0.150966
5107.54,0.150385
5112.58,0.149699
5117.62,0.149065
5122.68,0.148485
5127.75,0.147957
5132.82,0.147323
5137.91,0.146637
5143.01,0.146004
5148.12,0.145423
5153.23,0.144948
5158.36,0.144367
5163.5,0.14384
5168.65,0.143259
5173.81,0.142625
5178.98,0.141887
5184.15,0.141306
5189.34,0.140778
5194.54,0.140092
5199.75,0.1393
5204.98,0.138561
5210.21,0.137611
5215.45,0.136766
5220.7,0.13608
5225.96,0.135236
5231.23,0.134127
5236.52,0.133071
5241.81,0.132016
5247.12,0.130907
5252.44,0.129693
5257.76,0.128532
5263.1,0.127265
5268.45,0.125998
5273.81,0.124731
5279.18,0.123359
5284.56,0.121934
5289.95,0.120509
5295.36,0.119189
5300.77,0.118028
5306.2,0.116761
5311.63,0.115494
5317.08,0.11428
5322.54,0.113171
5328.01,0.112116
5333.49,0.111113
5338.98,0.11011
5344.49,0.109054
5350.0,0.108051
5355.53,0.107418
5361.07,0.10689
5366.62,0.106309
5372.18,0.105676
5377.75,0.105095
5383.34,0.10462
5388.93,0.104251
5394.54,0.103987
5400.16,0.10367
5405.79,0.103353
5411.44,0.103142
5417.09,0.102667
5422.76,0.102403
5428.43,0.102614
5434.12,0.102773
5439.83,0.102878
5445.54,0.102931
5451.26,0.103142
5457.0,0.103301
5462.75,0.103459
5468.52,0.103987
5474.29,0.104409
5480.08,0.104937
5485.88,0.105623
5491.69,0.106151
5497.51,0.106679
5503.35,0.107259
5509.2,0.10784
5515.06,0.108368
5520.93,0.10879
5526.82,0.109371
5532.71,0.109899
5538.63,0.110268
5544.55,0.110479
5550.49,0.110585
5556.44,0.110849
5562.4,0.111166
5568.37,0.111166
5574.36,0.110902
5580.36,0.110796
5586.37,0.111007
5592.4,0.110902
5598.44,0.110796
5604.49,0.110743
5610.56,0.110743
5616.63,0.11069
5622.73,0.110743
5628.83,0.110585
5634.95,0.110215
5641.08,0.109793
5647.23,0.10974
5653.39,0.109476
5659.56,0.109265
5665.74,0.108843
5671.94,0.107998
5678.15,0.107312
5684.38,0.106732
5690.62,0.105887
5696.87,0.105306
5703.14,0.104303
5709.42,0.103089
5715.72,0.102245
5722.03,0.101664
5728.35,0.100925
5734.69,0.100028
5741.03,0.099025
5747.4,0.098022
5753.78,0.097283
5760.17,0.095911
5766.58,0.094538
5773.0,0.094169
5779.44,0.093535
5785.88,0.092638
5792.35,0.091688
5798.83,0.09079
5805.32,0.089735
5811.83,0.088573
5818.35,0.087043
5824.89,0.08604
5831.45,0.085354
5838.01,0.084667
5844.59,0.083612
5851.19,0.082345
5857.8,0.080972
5864.43,0.079494
5871.07,0.078016
5877.73,0.076011
5884.4,0.074585
5891.09,0.073319
5897.79,0.071629
5904.5,0.070468
5911.23,0.068937
5917.98,0.06709
5924.75,0.065084
5931.53,0.06292
5938.32,0.060967
5945.13,0.0597
5951.96,0.058064
5958.8,0.056269
5965.65,0.05421
5972.53,0.052416
5979.42,0.050779
5986.32,0.048932
5993.24,0.047243
6000.18,0.045818
6007.13,0.044181
6014.1,0.042598
6021.08,0.041331
6028.09,0.040064
6035.1,0.038692
6042.14,0.037108
6049.19,0.035683
6056.25,0.034944
6063.34,0.033994
6070.44,0.032885
6077.55,0.032093
6084.69,0.03146
6091.84,0.030668
6099.0,0.030035
6106.19,0.029401
6113.39,0.028873
6120.61,0.028715
6127.84,0.028557
6135.09,0.02824
6142.36,0.028029
6149.65,0.027923
6156.95,0.027923
6164.27,0.028398
6171.61,0.029243
6178.97,0.030351
6186.34,0.032199
6193.73,0.034838
6201.14,0.037636
6208.57,0.040908
6216.01,0.044287
6223.47,0.047771
6230.95,0.051043
6238.45,0.054369
6245.97,0.057483
6253.5,0.060333
6261.06,0.06292
6268.63,0.065295
6276.21,0.067459
6283.82,0.069465
6291.45,0.071154
6299.1,0.072791
6306.76,0.074163
6314.44,0.07543
6322.14,0.076486
6329.86,0.07733
6337.6,0.077647
6345.35,0.078333
6353.13,0.079389
6360.92,0.079917
6368.74,0.080075
6376.57,0.080656
6384.43,0.081131
6392.3,0.081447
6400.19,0.081447
6408.1,0.080656
6416.03,0.08055
6423.98,0.081553
6431.95,0.08187
6439.94,0.082134
6447.95,0.082186
6455.98,0.082186
6464.03,0.081975
6472.1,0.081447
6480.19,0.080761
6488.31,0.080128
6496.44,0.080075
6504.59,0.080445
6512.76,0.080181
6520.95,0.0796
6529.16,0.079442
6537.4,0.079072
6545.65,0.078439
6553.92,0.077858
6562.22,0.077383
6570.54,0.076644
6578.88,0.076538
6587.23,0.07638
6595.61,0.076116
6604.02,0.075852
6612.44,0.075483
6620.89,0.074955
6629.35,0.074058
6637.84,0.073319
6646.35,0.073583
6654.88,0.073583
6663.44,0.073107
6672.01,0.072316
6680.61,0.071682
6689.23,0.071418
6697.88,0.071049
6706.54,0.070415
6715.23,0.06994
6723.94,0.069624
6732.67,0.069307
6741.42,0.068937
6750.2,0.068251
6759.0,0.067565
6767.82,0.066826
6776.67,0.065981
6785.54,0.065137
6794.44,0.064609
6803.35,0.064398
6812.29,0.06387
6821.26,0.063131
6830.24,0.062445
6839.25,0.061759
6848.29,0.060756
6857.35,0.059542
6866.43,0.058803
6875.54,0.058539
6884.67,0.057958
6893.82,0.057166
6903.0,0.056269
6912.2,0.055583
6921.43,0.054897
6930.69,0.054263
6939.96,0.053524
6949.27,0.05268
6958.59,0.051782
6967.95,0.051413
6977.33,0.05099
6986.73,0.050357
6996.16,0.049724
7005.61,0.049249
7015.09,0.048668
7024.6,0.048034
7034.13,0.047401
7043.69,0.046715
7053.27,0.046345
7062.88,0.046029
7072.52,0.045501
7082.18,0.04492
7091.87,0.044445
7101.58,0.04397
7111.32,0.043337
7121.09,0.042809
7130.88,0.042228
7140.71,0.041647
7150.56,0.040961
7160.43,0.040169
7170.33,0.039431
7180.27,0.038903
7190.23,0.038269
7200.21,0.037583
7210.23,0.036897
7220.27,0.036316
7230.34,0.035683
7240.44,0.035049
7250.56,0.03431
7260.72,0.033571
7270.9,0.032991
7281.12,0.032357
7291.36,0.031671
7301.63,0.030932
7311.93,0.030193
7322.25,0.029507
7332.61,0.028821
7343.0,0.02824
7353.41,0.027659
7363.86,0.027079
7374.33,0.02634
7384.83,0.025654
7395.37,0.024915
7405.93,0.024281
7416.53,0.023753
7427.15,0.023173
7437.81,0.022592
7448.5,0.022117
7459.22,0.021431
7469.96,0.020745
7480.74,0.020217
7491.55,0.019636
7502.39,0.019055
7513.27,0.018475
7524.17,0.017841
7535.11,0.017314
7546.08,0.016786
7557.08,0.016152
7568.11,0.015624
7579.17,0.015097
7590.27,0.014569
7601.4,0.014041
7612.56,0.013513
7623.76,0.013144
7634.98,0.012616
7646.24,0.012088
7657.54,0.011613
7668.87,0.011296
7680.23,0.010874
7691.62,0.010451
7703.05,0.009976
7714.51,0.00966
7726.01,0.009343
7737.54,0.009026
7749.11,0.008604
7760.71,0.008287
7772.35,0.007971
7784.02,0.007707
7795.72,0.00739
7807.46,0.007179
7819.23,0.006915
7831.04,0.006756
7842.89,0.006598
7854.77,0.006493
7866.69,0.006281
7878.65,0.006176
7890.64,0.006176
7902.67,0.006176
7914.74,0.006176
7926.84,0.006334
7938.98,0.006387
7951.16,0.006387
7963.37,0.006387
7975.62,0.006545
7987.91,0.006756
8000.24,0.006968
8012.6,0.007284
8025.01,0.007495
8037.45,0.007759
8049.93,0.008023
8062.45,0.008604
8075.01,0.009132
8087.61,0.009607
8100.24,0.010346
8112.91,0.011138
8125.63,0.011929
8138.39,0.01288
8151.18,0.013882
8164.02,0.014727
8176.9,0.015466
8189.81,0.016469
8202.77,0.017525
8215.77,0.018369
8228.82,0.019372
8241.9,0.020481
8255.02,0.021695
8268.19,0.022645
8281.39,0.023912
8294.65,0.025284
8307.94,0.026815
8321.28,0.028557
8334.66,0.030351
8348.08,0.031935
8361.54,0.033413
8375.05,0.034521
8388.6,0.035683
8402.2,0.036844
8415.84,0.037794
8429.52,0.038692
8443.25,0.039589
8457.02,0.040381
8470.84,0.041331
8484.7,0.042386
8498.61,0.043284
8512.57,0.043812
8526.57,0.044234
8540.62,0.044709
8554.71,0.045026
8568.85,0.045448
8583.04,0.046187
8597.27,0.047137
8611.55,0.048034
8625.88,0.048773
8640.26,0.049354
8654.68,0.049988
8669.16,0.050674
8683.68,0.051466
8698.25,0.05231
8712.87,0.053102
8727.53,0.053841
8742.25,0.054421
8757.02,0.054949
8771.83,0.055108
8786.7,0.055213
8801.62,0.055319
8816.59,0.055372
8831.61,0.055108
8846.68,0.054738
8861.8,0.054369
8876.97,0.053894
8892.2,0.053155
8907.48,0.05231
8922.81,0.051202
8938.2,0.049935
8953.63,0.048826
8969.13,0.048034
8984.67,0.047718
9000.27,0.047929
9015.92,0.048773
9031.63,0.050357
9047.39,0.052152
9063.21,0.054105
9079.08,0.056586
9095.01,0.059278
9111.0,0.062286
9127.04,0.065612
9143.13,0.069149
9159.28,0.072738
9175.49,0.076538
9191.76,0.080286
9208.09,0.083981
9224.47,0.087623
9240.92,0.09116
9257.42,0.094327
9273.98,0.097072
9290.6,0.099394
9307.28,0.101189
9324.02,0.102034
9340.82,0.101875
9357.68,0.101189
9374.6,0.100028
9391.58,0.098444
9408.62,0.096597
9425.73,0.094749
9442.9,0.09306
9460.13,0.091371
9477.42,0.089629
9494.78,0.087887
9512.2,0.086198
9529.69,0.084509
9547.24,0.082978
9564.86,0.0815
9582.54,0.079758
9600.28,0.078016
9618.1,0.076486
9635.97,0.075113
9653.92,0.073635
9671.93,0.072052
9690.01,0.070732
9708.16,0.069571
9726.37,0.06841
9744.65,0.067407
9763.0,0.066351
9781.43,0.065242
9799.92,0.063976
9818.48,0.06255
9837.1,0.061389
9855.8,0.060122
9874.58,0.058908
9893.42,0.057641
9912.34,0.056638
9931.33,0.056163
9950.39,0.056058
9969.52,0.055847
9988.74,0.055372
10008.0,0.054685
10027.4,0.054105
10046.8,0.053577
10066.3,0.052838
10085.9,0.051993
10105.6,0.051413
10125.3,0.050779
10145.1,0.049988
10165.0,0.049354
10185.0,0.048668
10205.0,0.047876
10225.2,0.047243
10245.4,0.046768
10265.7,0.046345
10286.0,0.045712
10306.5,0.04492
10327.0,0.044498
10347.6,0.044128
10368.3,0.043601
10389.1,0.042914
10409.9,0.042439
10430.9,0.041647
10451.9,0.040908
10473.0,0.040433
10494.2,0.040011
10515.5,0.039694
10536.9,0.039167
10558.4,0.038375
10579.9,0.037636
10601.5,0.037372
10623.3,0.036897
10645.1,0.036105
10667.0,0.035683
10689.0,0.035366
10711.1,0.034944
10733.2,0.034627
10755.5,0.034469
10777.9,0.03431
10800.3,0.034152
10822.9,0.034152
10845.5,0.034363
10868.2,0.034733
10891.1,0.03526
10914.0,0.035524
10937.0,0.035788
10960.2,0.036263
10983.4,0.03658
11006.7,0.036844
11030.1,0.037161
11053.6,0.037161
11077.3,0.037002
11101.0,0.036738
11124.8,0.036527
11148.7,0.036052
11172.7,0.035577
11196.9,0.035102
11221.1,0.034891
11245.4,0.034785
11269.9,0.034521
11294.4,0.034205
11319.1,0.034363
11343.9,0.03468
11368.8,0.034733
11393.7,0.034891
11418.8,0.035366
11444.0,0.035894
11469.4,0.036316
11494.8,0.036686
11520.3,0.037002
11546.0,0.037214
11571.8,0.037214
11597.7,0.037108
11623.7,0.036897
11649.8,0.036527
11676.0,0.036211
11702.4,0.036263
11728.9,0.036105
11755.5,0.035736
11782.2,0.03563
11809.0,0.035894
11836.0,0.036211
11863.0,0.03658
11890.3,0.037002
11917.6,0.037108
11945.0,0.037108
11972.6,0.037161
12000.4,0.037319
12028.2,0.037161
12056.2,0.036844
12084.3,0.036686
12112.5,0.036422
12140.9,0.036052
12169.4,0.035788
12198.0,0.03526
12226.8,0.034574
12255.7,0.033941
12284.7,0.033413
12313.9,0.032516
12343.2,0.031829
12372.7,0.03109
12402.3,0.030351
12432.0,0.029718
12461.9,0.029243
12491.9,0.028979
12522.1,0.029085
12552.4,0.02919
12582.9,0.029454
12613.5,0.029771
12644.3,0.030088
12675.2,0.030299
12706.3,0.030563
12737.5,0.031038
12768.9,0.031249
12800.4,0.031249
12832.1,0.03109
12863.9,0.031143
12895.9,0.031196
12928.1,0.031038
12960.4,0.030985
12992.9,0.030985
13025.5,0.030721
13058.3,0.030351
13091.3,0.030193
13124.4,0.029876
13157.8,0.029507
13191.2,0.029085
13224.9,0.028398
13258.7,0.027712
13292.7,0.027395
13326.9,0.027026
13361.2,0.026234
13395.7,0.025548
13430.4,0.02502
13465.3,0.024492
13500.4,0.023806
13535.7,0.022803
13571.1,0.022328
13606.7,0.021695
13642.5,0.020956
13678.5,0.020481
13714.7,0.020164
13751.1,0.019689
13787.6,0.019425
13824.4,0.019003
13861.4,0.018792
13898.5,0.018264
13935.9,0.017789
13973.5,0.017419
14011.2,0.017261
14049.2,0.016997
14087.4,0.016522
14125.8,0.016099
14164.3,0.015572
14203.2,0.015255
14242.2,0.014885
14281.4,0.014727
14320.9,0.014305
14360.5,0.013671
14400.4,0.013671
14440.5,0.013513
14480.9,0.012827
14521.4,0.012668
14562.2,0.012405
14603.3,0.011929
14644.5,0.011666
14686.0,0.011349
14727.7,0.011032
14769.7,0.010663
14811.9,0.010451
14854.3,0.010504
14897.0,0.010557
14939.9,0.010768
14983.1,0.010768
15026.5,0.010821
15070.2,0.010874
15114.2,0.010557
15158.3,0.010451
15202.8,0.010135
15247.5,0.009818
15292.5,0.009924
15337.7,0.009976
15383.2,0.009924
15429.0,0.009871
15475.1,0.01024
15521.4,0.010346
15568.0,0.010293
15614.9,0.010504
15662.1,0.011296
15709.6,0.011718
15757.3,0.012299
15805.4,0.013619
15853.7,0.014727
15902.3,0.015466
15951.2,0.016363
16000.5,0.017419
16050.0,0.018316
16099.8,0.019214
16150.0,0.019794
16200.5,0.020797
16251.3,0.021906
16302.4,0.022698
16353.8,0.022856
16405.5,0.023278
16457.6,0.024545
16510.0,0.025548
16562.8,0.026181
16615.9,0.027607
16669.3,0.028398
16723.1,0.028821
16777.2,0.030299
16831.7,0.032568
16886.5,0.034205
16941.7,0.035999
16997.2,0.037847
17053.1,0.0398
17109.4,0.041911
17166.1,0.044234
17223.1,0.045659
17280.5,0.046662
17338.3,0.048351
17396.5,0.050621
17455.1,0.053102
17514.0,0.055108
17573.4,0.056427
17633.2,0.0578
17693.4,0.059067
17754.0,0.06065
17815.0,0.062075
17876.4,0.063712
17938.3,0.065348
18000.5,0.066457
18063.3,0.066984
18126.4,0.068251
18190.0,0.06994
18254.1,0.071102
18318.6,0.071999
18383.5,0.072949
18449.0,0.073741
18514.9,0.074797
18581.2,0.074638
18648.0,0.074058
18715.4,0.074005
18783.2,0.073583
18851.5,0.072316
18920.3,0.071154
18989.6,0.069149
19059.4,0.066509
19129.7,0.064345
19200.6,0.062181
19272.0,0.058697
19343.9,0.054897
19416.3,0.051993
19489.3,0.04909
19562.8,0.045606
19637.0,0.042334
19711.6,0.038797
19786.8,0.035472
19862.6,0.033782
19939.0,0.033466
20016.0,0.034099
20093.6,0.036844
20171.8,0.041489
20250.6,0.047401
20330.0,0.055002
20410.0,0.063659
20490.7,0.071049
20572.0,0.077066
20654.0,0.082873
20736.6,0.08604
20819.9,0.088151
20903.8,0.090263
20988.5,0.090949
21073.8,0.091477
21159.8,0.092057
21246.5,0.092638
21334.0,0.091846
21422.1,0.089365
21511.0,0.086304
21600.7,0.083876
21691.0,0.081078
21782.1,0.078597
21874.0,0.076538
21966.7,0.074638
22060.2,0.073002
22154.5,0.072685
22249.6,0.072474
22345.5,0.07089
22442.2,0.07031
22539.8,0.071207
22638.2,0.069782
22737.5,0.069201
22837.7,0.067723
22938.7,0.064715
23040.7,0.064451
23143.5,0.065665
23247.3,0.067037
23352.1,0.067459
23457.7,0.064926
23564.4,0.061706
23672.0,0.06065
23780.5,0.0616
23890.1,0.061864
24000.7,0.063078
24112.3,0.064187
24225.0,0.064134
24338.7,0.063289
24453.5,0.063078
24569.4,0.062445
24686.4,0.062603
24804.5,0.063501
24923.8,0.064662