Composition,
Date Added,2022-04-27 20:01:21.749394
Formula,
Grain Size,
Locality,
Minimum Wavelength,1385.0
Sample Name,Montmorillonite
Maximum Wavelength,24804.0
Database of Origin,USGS Spectral Database
Other Information,
References,
Resolution,
Material Class,Phyllosilicate
Sample Description,See USGS database for additional info
Sample ID,Montmorillonite_stx1.14644
Original Sample ID,
Sample Type,None
Viewing Geometry,
Wavelength,Response
1384.66,0.906573
1385.03,0.902294
1385.4,0.897783
1385.77,0.893851
1386.14,0.890845
1386.51,0.887144
1386.88,0.881361
1387.25,0.876042
1387.62,0.871069
1387.99,0.866905
1388.36,0.862626
1388.74,0.857769
1389.11,0.853259
1389.48,0.847476
1389.85,0.841578
1390.23,0.836489
1390.6,0.831632
1390.97,0.826197
1391.35,0.818448
1391.72,0.811278
1392.09,0.804108
1392.47,0.797747
1392.84,0.792774
1393.21,0.788264
1393.59,0.78306
1393.96,0.777624
1394.34,0.769991
1394.71,0.762012
1395.09,0.755535
1395.46,0.751025
1395.84,0.745821
1396.22,0.738766
1396.59,0.733215
1396.97,0.72882
1397.35,0.724657
1397.72,0.720031
1398.1,0.714942
1398.48,0.710548
1398.85,0.7065
1399.23,0.700833
1399.61,0.695976
1399.99,0.692044
1400.37,0.687533
1400.74,0.682908
1401.12,0.679091
1401.5,0.67539
1401.88,0.672615
1402.26,0.670302
1402.64,0.666254
1403.02,0.661628
1403.4,0.658159
1403.78,0.655267
1404.16,0.650757
1404.54,0.645553
1404.92,0.64243
1405.3,0.640233
1405.68,0.636879
1406.06,0.63341
1406.44,0.630287
1406.83,0.626355
1407.21,0.623348
1407.59,0.620457
1407.97,0.616409
1408.35,0.614096
1408.74,0.611321
1409.12,0.607389
1409.5,0.603688
1409.89,0.601144
1410.27,0.598368
1410.65,0.595593
1411.04,0.59247
1411.42,0.58981
1411.81,0.58715
1412.19,0.584953
1412.58,0.581599
1412.96,0.578476
1413.35,0.576742
1413.73,0.575238
1414.12,0.574313
1414.5,0.572925
1414.89,0.572347
1415.28,0.572
1415.66,0.571191
1416.05,0.571075
1416.44,0.572
1416.82,0.573272
1417.21,0.573504
1417.6,0.573504
1417.98,0.574776
1418.37,0.576164
1418.76,0.577667
1419.15,0.578708
1419.54,0.580558
1419.93,0.58264
1420.32,0.584722
1420.71,0.586225
1421.09,0.588885
1421.48,0.592354
1421.88,0.59432
1422.27,0.596402
1422.66,0.599062
1423.05,0.602185
1423.44,0.605191
1423.83,0.607504
1424.22,0.61028
1424.61,0.613865
1425.0,0.617219
1425.39,0.621267
1425.78,0.624505
1426.18,0.626933
1426.57,0.629131
1426.96,0.632253
1427.36,0.635376
1427.75,0.638151
1428.14,0.641621
1428.54,0.644975
1428.93,0.648328
1429.32,0.651104
1429.72,0.653186
1430.11,0.655961
1430.51,0.658968
1430.9,0.661975
1431.3,0.665213
1431.69,0.667989
1432.09,0.669955
1432.48,0.672499
1432.88,0.675159
1433.28,0.67805
1433.67,0.681057
1434.07,0.682908
1434.46,0.685105
1434.86,0.68869
1435.26,0.690772
1435.66,0.692738
1436.05,0.694704
1436.45,0.69667
1436.85,0.698983
1437.25,0.701874
1437.65,0.70384
1438.05,0.705228
1438.44,0.707425
1438.84,0.709507
1439.24,0.710895
1439.64,0.712514
1440.04,0.714017
1440.44,0.715521
1440.84,0.716446
1441.24,0.717718
1441.65,0.719684
1442.05,0.721766
1442.45,0.722922
1442.85,0.724194
1443.25,0.725235
1443.65,0.725929
1444.05,0.727548
1444.46,0.72882
1444.86,0.729051
1445.26,0.729745
1445.67,0.731133
1446.07,0.731827
1446.47,0.732984
1446.88,0.734256
1447.28,0.734603
1447.68,0.735181
1448.09,0.736453
1448.49,0.737263
1448.9,0.737957
1449.3,0.738188
1449.71,0.73865
1450.11,0.738882
1450.52,0.739576
1450.93,0.740269
1451.33,0.740154
1451.74,0.740732
1452.14,0.740963
1452.55,0.74131
1452.96,0.74131
1453.36,0.74131
1453.77,0.741079
1454.18,0.74131
1454.59,0.74131
1455.0,0.740848
1455.41,0.740269
1455.81,0.73946
1456.22,0.739691
1456.63,0.740616
1457.04,0.741079
1457.45,0.740269
1457.86,0.739229
1458.27,0.738997
1458.68,0.738882
1459.09,0.738188
1459.5,0.737841
1459.91,0.737725
1460.32,0.737263
1460.74,0.73761
1461.15,0.737725
1461.56,0.737725
1461.97,0.73761
1462.39,0.737031
1462.8,0.736106
1463.21,0.735412
1463.62,0.735297
1464.04,0.735759
1464.45,0.736222
1464.86,0.736684
1465.28,0.736106
1465.69,0.735759
1466.11,0.736569
1466.52,0.737841
1466.94,0.738766
1467.35,0.739113
1467.77,0.739344
1468.18,0.740385
1468.6,0.74131
1469.02,0.741889
1469.43,0.742698
1469.85,0.744086
1470.27,0.744548
1470.68,0.74478
1471.1,0.746052
1471.52,0.747324
1471.94,0.748712
1472.35,0.750562
1472.77,0.751256
1473.19,0.752413
1473.61,0.753916
1474.03,0.755073
1474.45,0.755882
1474.87,0.756345
1475.29,0.757964
1475.71,0.760855
1476.13,0.763052
1476.55,0.763284
1476.97,0.762937
1477.39,0.764324
1477.81,0.766175
1478.23,0.768256
1478.65,0.769182
1479.07,0.769644
1479.5,0.770223
1479.92,0.770801
1480.34,0.772073
1480.76,0.773808
1481.19,0.774964
1481.61,0.775889
1482.03,0.776468
1482.46,0.777277
1482.88,0.778318
1483.31,0.779706
1483.73,0.781325
1484.16,0.78225
1484.58,0.782597
1485.01,0.783985
1485.43,0.784794
1485.86,0.785951
1486.28,0.786645
1486.71,0.787801
1487.14,0.789189
1487.56,0.789883
1487.99,0.790808
1488.42,0.79208
1488.84,0.793121
1489.27,0.794162
1489.7,0.794856
1490.13,0.794509
1490.56,0.795087
1490.98,0.796822
1491.41,0.797747
1491.84,0.797978
1492.27,0.798441
1492.7,0.799366
1493.13,0.800407
1493.56,0.801101
1493.99,0.802142
1494.42,0.803298
1494.85,0.803761
1495.29,0.804455
1495.72,0.805264
1496.15,0.805496
1496.58,0.806074
1497.01,0.807115
1497.44,0.807577
1497.88,0.808387
1498.31,0.809428
1498.74,0.80989
1499.18,0.8107
1499.61,0.811856
1500.04,0.812781
1500.48,0.813475
1500.91,0.814169
1501.35,0.81521
1501.78,0.81602
1502.22,0.815904
1502.65,0.815904
1503.09,0.816945
1503.53,0.817407
1503.96,0.817754
1504.4,0.819142
1504.83,0.820414
1505.27,0.820761
1505.71,0.821339
1506.15,0.822265
1506.58,0.822612
1507.02,0.822843
1507.46,0.823537
1507.9,0.824462
1508.34,0.825387
1508.78,0.826428
1509.21,0.826428
1509.66,0.827006
1510.09,0.828278
1510.53,0.829088
1510.97,0.829897
1511.42,0.829897
1511.86,0.829897
1512.3,0.830476
1512.74,0.830823
1513.18,0.831401
1513.62,0.832673
1514.06,0.833367
1514.51,0.833598
1514.95,0.834061
1515.39,0.834061
1515.83,0.834176
1516.28,0.835333
1516.72,0.836721
1517.16,0.837183
1517.61,0.837646
1518.05,0.837993
1518.5,0.838109
1518.94,0.838571
1519.39,0.839149
1519.83,0.839496
1520.28,0.840421
1520.73,0.841578
1521.17,0.841809
1521.62,0.842041
1522.07,0.842272
1522.51,0.843081
1522.96,0.843081
1523.41,0.843313
1523.85,0.844007
1524.3,0.844469
1524.75,0.845048
1525.2,0.845394
1525.65,0.845973
1526.1,0.846782
1526.55,0.846898
1527.0,0.846898
1527.45,0.847129
1527.9,0.848286
1528.35,0.848517
1528.8,0.849211
1529.25,0.850252
1529.7,0.85002
1530.15,0.850252
1530.6,0.850252
1531.05,0.850483
1531.51,0.851408
1531.96,0.852218
1532.41,0.852565
1532.87,0.853027
1533.32,0.85349
1533.77,0.854184
1534.23,0.854415
1534.68,0.855225
1535.14,0.855803
1535.59,0.855803
1536.05,0.856612
1536.5,0.857191
1536.96,0.858231
1537.41,0.858925
1537.87,0.859272
1538.32,0.859619
1538.78,0.859851
1539.24,0.859851
1539.7,0.860313
1540.15,0.861238
1540.61,0.862279
1541.07,0.862395
1541.53,0.862626
1541.98,0.86332
1542.44,0.863667
1542.9,0.86413
1543.36,0.864361
1543.82,0.863898
1544.28,0.863898
1544.74,0.865517
1545.2,0.866789
1545.66,0.867136
1546.12,0.867252
1546.59,0.867252
1547.05,0.867483
1547.51,0.868409
1547.97,0.869449
1548.43,0.870375
1548.9,0.870143
1549.36,0.870143
1549.82,0.870953
1550.29,0.8713
1550.75,0.871994
1551.21,0.872572
1551.68,0.872803
1552.14,0.873613
1552.61,0.874538
1553.07,0.874654
1553.54,0.874769
1554.0,0.874885
1554.47,0.874654
1554.93,0.876042
1555.4,0.877198
1555.87,0.876967
1556.34,0.876851
1556.8,0.877429
1557.27,0.878008
1557.74,0.87847
1558.21,0.878817
1558.68,0.879627
1559.14,0.880436
1559.61,0.880552
1560.08,0.880436
1560.55,0.881014
1561.02,0.882055
1561.49,0.881824
1561.96,0.882171
1562.43,0.882634
1562.9,0.882865
1563.38,0.883674
1563.85,0.884137
1564.32,0.884368
1564.79,0.885178
1565.26,0.885293
1565.74,0.884831
1566.21,0.885062
1566.68,0.88564
1567.16,0.885987
1567.63,0.886334
1568.1,0.887028
1568.58,0.887606
1569.05,0.887838
1569.53,0.887722
1570.0,0.888185
1570.48,0.88911
1570.96,0.889688
1571.43,0.889804
1571.91,0.889804
1572.39,0.890266
1572.86,0.89096
1573.34,0.891654
1573.82,0.891538
1574.3,0.891076
1574.77,0.892232
1575.25,0.893042
1575.73,0.893042
1576.21,0.893158
1576.69,0.893504
1577.17,0.893736
1577.65,0.893851
1578.13,0.893736
1578.61,0.894314
1579.09,0.895239
1579.57,0.895355
1580.05,0.895239
1580.54,0.895817
1581.02,0.896164
1581.5,0.895933
1581.98,0.896627
1582.47,0.896858
1582.95,0.896858
1583.43,0.897205
1583.92,0.897436
1584.4,0.897668
1584.88,0.897552
1585.37,0.897783
1585.85,0.898477
1586.34,0.89894
1586.82,0.899634
1587.31,0.899402
1587.8,0.899287
1588.28,0.89975
1588.77,0.900328
1589.26,0.901137
1589.74,0.901369
1590.23,0.901022
1590.72,0.901253
1591.21,0.901716
1591.7,0.902178
1592.19,0.902988
1592.67,0.902872
1593.16,0.903103
1593.65,0.903797
1594.14,0.903566
1594.63,0.90345
1595.12,0.904029
1595.61,0.904491
1596.11,0.904954
1596.6,0.90611
1597.09,0.906804
1597.58,0.906804
1598.08,0.906341
1598.57,0.906688
1599.06,0.907035
1599.55,0.907151
1600.05,0.907382
1600.54,0.907845
1601.04,0.908307
1601.53,0.908307
1602.03,0.908655
1602.52,0.909233
1603.02,0.909117
1603.51,0.90877
1604.01,0.909464
1604.5,0.910389
1605.0,0.910967
1605.5,0.911314
1606.0,0.91143
1606.49,0.912124
1606.99,0.912471
1607.49,0.911893
1607.99,0.912355
1608.49,0.91328
1608.99,0.913396
1609.49,0.913743
1609.99,0.913743
1610.49,0.914437
1610.99,0.915015
1611.49,0.914899
1611.99,0.914784
1612.49,0.915362
1612.99,0.916056
1613.49,0.916866
1614.0,0.917212
1614.5,0.916866
1615.0,0.916981
1615.51,0.917212
1616.01,0.917675
1616.51,0.917791
1617.02,0.918022
1617.52,0.9186
1618.03,0.919525
1618.53,0.918947
1619.04,0.919641
1619.54,0.920913
1620.05,0.921145
1620.55,0.921145
1621.06,0.921145
1621.57,0.920798
1622.08,0.920682
1622.58,0.921491
1623.09,0.921839
1623.6,0.921491
1624.11,0.921839
1624.62,0.922185
1625.13,0.922648
1625.64,0.923342
1626.15,0.924036
1626.66,0.924383
1627.17,0.924498
1627.68,0.924614
1628.19,0.925077
1628.7,0.925771
1629.21,0.925886
1629.72,0.925539
1630.24,0.925655
1630.75,0.925771
1631.26,0.925655
1631.78,0.926002
1632.29,0.926696
1632.8,0.927043
1633.32,0.927158
1633.83,0.927043
1634.35,0.927621
1634.86,0.928083
1635.38,0.928199
1635.9,0.928662
1636.41,0.929009
1636.93,0.928777
1637.45,0.928893
1637.96,0.92924
1638.48,0.929587
1639.0,0.929471
1639.52,0.929703
1640.04,0.930396
1640.56,0.930165
1641.08,0.930165
1641.59,0.930281
1642.11,0.929818
1642.63,0.930281
1643.16,0.931322
1643.68,0.9319
1644.2,0.932131
1644.72,0.931784
1645.24,0.931784
1645.76,0.9319
1646.29,0.931784
1646.81,0.9319
1647.33,0.932016
1647.86,0.932363
1648.38,0.932594
1648.9,0.932825
1649.43,0.933288
1649.95,0.932941
1650.48,0.932594
1651.0,0.93375
1651.53,0.933866
1652.06,0.93375
1652.58,0.933519
1653.11,0.933519
1653.64,0.934213
1654.17,0.935022
1654.69,0.935138
1655.22,0.935022
1655.75,0.935022
1656.28,0.935138
1656.81,0.935022
1657.34,0.935138
1657.87,0.935601
1658.4,0.935601
1658.93,0.935485
1659.46,0.935832
1659.99,0.935832
1660.52,0.935832
1661.05,0.935948
1661.59,0.936179
1662.12,0.936179
1662.65,0.936295
1663.19,0.936526
1663.72,0.936757
1664.26,0.93641
1664.79,0.936179
1665.32,0.936295
1665.86,0.937104
1666.39,0.937451
1666.93,0.937567
1667.47,0.937914
1668.0,0.938029
1668.54,0.937567
1669.08,0.937914
1669.61,0.937914
1670.15,0.938145
1670.69,0.938839
1671.23,0.939301
1671.77,0.939186
1672.31,0.938608
1672.85,0.938723
1673.39,0.939301
1673.93,0.939417
1674.47,0.939417
1675.01,0.939533
1675.55,0.939764
1676.09,0.940111
1676.64,0.939417
1677.18,0.939186
1677.72,0.939764
1678.26,0.939995
1678.81,0.940111
1679.35,0.93988
1679.89,0.939995
1680.44,0.940111
1680.98,0.940574
1681.53,0.940921
1682.07,0.940574
1682.62,0.940689
1683.17,0.941036
1683.71,0.940689
1684.26,0.940342
1684.81,0.940458
1685.36,0.940458
1685.9,0.940458
1686.45,0.940805
1687.0,0.941152
1687.55,0.941152
1688.1,0.941614
1688.65,0.94173
1689.2,0.941846
1689.75,0.942077
1690.3,0.942308
1690.85,0.942308
1691.41,0.941846
1691.96,0.941383
1692.51,0.941846
1693.06,0.942308
1693.61,0.942193
1694.17,0.94173
1694.72,0.941846
1695.28,0.941961
1695.83,0.942077
1696.39,0.941961
1696.94,0.941961
1697.5,0.94173
1698.05,0.942193
1698.61,0.942308
1699.17,0.941499
1699.72,0.941614
1700.28,0.941614
1700.84,0.941268
1701.4,0.941036
1701.95,0.941152
1702.51,0.941383
1703.07,0.941152
1703.63,0.941268
1704.19,0.94173
1704.75,0.941268
1705.31,0.940574
1705.88,0.940227
1706.44,0.940227
1707.0,0.940111
1707.56,0.940227
1708.12,0.940458
1708.69,0.940227
1709.25,0.939764
1709.81,0.939533
1710.38,0.939417
1710.94,0.939186
1711.51,0.93907
1712.07,0.938608
1712.64,0.938839
1713.2,0.938955
1713.77,0.938376
1714.34,0.938145
1714.9,0.938261
1715.47,0.937798
1716.04,0.937104
1716.61,0.936988
1717.18,0.937104
1717.74,0.937335
1718.31,0.93722
1718.88,0.936873
1719.45,0.936988
1720.02,0.936642
1720.59,0.935716
1721.17,0.935485
1721.74,0.935369
1722.31,0.935022
1722.88,0.934676
1723.45,0.934676
1724.03,0.934676
1724.6,0.934213
1725.18,0.934213
1725.75,0.933635
1726.33,0.933288
1726.9,0.933056
1727.48,0.933288
1728.05,0.933056
1728.63,0.932825
1729.2,0.932478
1729.78,0.932131
1730.36,0.932247
1730.94,0.932016
1731.51,0.9319
1732.09,0.931669
1732.67,0.931553
1733.25,0.931553
1733.83,0.931553
1734.41,0.931784
1734.99,0.931784
1735.57,0.931437
1736.15,0.931206
1736.73,0.930975
1737.32,0.930512
1737.9,0.930512
1738.48,0.930396
1739.07,0.929934
1739.65,0.929587
1740.23,0.929587
1740.82,0.929703
1741.4,0.92924
1741.99,0.92924
1742.57,0.92924
1743.16,0.929009
1743.74,0.928893
1744.33,0.928893
1744.92,0.928777
1745.51,0.928083
1746.09,0.928199
1746.68,0.92843
1747.27,0.92843
1747.86,0.928199
1748.45,0.928083
1749.04,0.927737
1749.63,0.927852
1750.22,0.928083
1750.81,0.92739
1751.4,0.926696
1751.99,0.926464
1752.59,0.926349
1753.18,0.925886
1753.77,0.925771
1754.37,0.925424
1754.96,0.925308
1755.56,0.924961
1756.15,0.925077
1756.74,0.925539
1757.34,0.924845
1757.94,0.924151
1758.53,0.92392
1759.13,0.924267
1759.73,0.924383
1760.32,0.924151
1760.92,0.92392
1761.52,0.923689
1762.12,0.923458
1762.72,0.923226
1763.32,0.922417
1763.92,0.921954
1764.52,0.921723
1765.12,0.921607
1765.72,0.921376
1766.32,0.920913
1766.92,0.920682
1767.53,0.920451
1768.13,0.920335
1768.73,0.920335
1769.34,0.919872
1769.94,0.91941
1770.55,0.918947
1771.15,0.918138
1771.76,0.918138
1772.36,0.918369
1772.97,0.918022
1773.57,0.917791
1774.18,0.917444
1774.79,0.91675
1775.4,0.91675
1776.0,0.916634
1776.61,0.91594
1777.22,0.915593
1777.83,0.915247
1778.44,0.914437
1779.05,0.913743
1779.66,0.913396
1780.27,0.913165
1780.88,0.913165
1781.5,0.913165
1782.11,0.912818
1782.72,0.91224
1783.33,0.911893
1783.95,0.911199
1784.56,0.911083
1785.18,0.910967
1785.79,0.910042
1786.41,0.909348
1787.02,0.909233
1787.64,0.909233
1788.26,0.908886
1788.87,0.908539
1789.49,0.908539
1790.11,0.907961
1790.73,0.907729
1791.35,0.907498
1791.96,0.906804
1792.58,0.90611
1793.21,0.905995
1793.83,0.905763
1794.45,0.905532
1795.07,0.905416
1795.69,0.904954
1796.31,0.905069
1796.93,0.904491
1797.56,0.904029
1798.18,0.903797
1798.8,0.903797
1799.43,0.90345
1800.05,0.902756
1800.68,0.902641
1801.3,0.902525
1801.93,0.902062
1802.56,0.901484
1803.18,0.901831
1803.81,0.901716
1804.44,0.901369
1805.07,0.900906
1805.7,0.900443
1806.33,0.900675
1806.95,0.900675
1807.58,0.900443
1808.22,0.900675
1808.85,0.900328
1809.48,0.899865
1810.11,0.899518
1810.74,0.899287
1811.38,0.89894
1812.01,0.89894
1812.64,0.89894
1813.28,0.899056
1813.91,0.898824
1814.55,0.898477
1815.18,0.897668
1815.82,0.897783
1816.45,0.897899
1817.09,0.897899
1817.73,0.897436
1818.36,0.897205
1819.0,0.897436
1819.64,0.896743
1820.28,0.895817
1820.92,0.89628
1821.56,0.896049
1822.2,0.89628
1822.84,0.896396
1823.48,0.89628
1824.12,0.89628
1824.76,0.895933
1825.41,0.893967
1826.05,0.892579
1826.69,0.894083
1827.34,0.894661
1827.98,0.893736
1828.63,0.892926
1829.27,0.892926
1829.92,0.892464
1830.56,0.89096
1831.21,0.890729
1831.86,0.891191
1832.5,0.89096
1833.15,0.89096
1833.8,0.890382
1834.45,0.888878
1835.1,0.888185
1835.75,0.887144
1836.4,0.88645
1837.05,0.885525
1837.7,0.885062
1838.35,0.885987
1839.01,0.884831
1839.66,0.882634
1840.31,0.882518
1840.96,0.881593
1841.62,0.879742
1842.27,0.880552
1842.93,0.881014
1843.58,0.880552
1844.24,0.880089
1844.9,0.87928
1845.55,0.877776
1846.21,0.874769
1846.87,0.872225
1847.53,0.872341
1848.18,0.871994
1848.84,0.872225
1849.5,0.871994
1850.16,0.870837
1850.82,0.869796
1851.48,0.869218
1852.14,0.867483
1852.81,0.865517
1853.47,0.862857
1854.13,0.862279
1854.8,0.862626
1855.46,0.861007
1856.12,0.858231
1856.79,0.856381
1857.45,0.855456
1858.12,0.854531
1858.79,0.851871
1859.45,0.847939
1860.12,0.84632
1860.79,0.845626
1861.46,0.843775
1862.12,0.841231
1862.79,0.838687
1863.46,0.835564
1864.13,0.83221
1864.8,0.829088
1865.48,0.825734
1866.15,0.822149
1866.82,0.817754
1867.49,0.812435
1868.16,0.808849
1868.84,0.80538
1869.51,0.800638
1870.19,0.793931
1870.86,0.788033
1871.54,0.785373
1872.21,0.779475
1872.89,0.771957
1873.56,0.767216
1874.24,0.76259
1874.92,0.756229
1875.6,0.749868
1876.28,0.742004
1876.96,0.734487
1877.64,0.728358
1878.32,0.721187
1879.0,0.712976
1879.68,0.704534
1880.36,0.69586
1881.04,0.686955
1881.73,0.677588
1882.41,0.668104
1883.09,0.658159
1883.78,0.647519
1884.46,0.638036
1885.15,0.627859
1885.83,0.616988
1886.52,0.60577
1887.21,0.594667
1887.89,0.583449
1888.58,0.571769
1889.27,0.559626
1889.96,0.546789
1890.65,0.534761
1891.34,0.523196
1892.03,0.511284
1892.72,0.499719
1893.41,0.487923
1894.1,0.476474
1894.79,0.464794
1895.49,0.453575
1896.18,0.442936
1896.87,0.432412
1897.57,0.422929
1898.26,0.413908
1898.96,0.40454
1899.65,0.395635
1900.35,0.388118
1901.05,0.381757
1901.74,0.375165
1902.44,0.368689
1903.14,0.363948
1903.84,0.3599
1904.54,0.355389
1905.24,0.351804
1905.94,0.349144
1906.64,0.34741
1907.34,0.346831
1908.04,0.346485
1908.75,0.346485
1909.45,0.346716
1910.15,0.347525
1910.86,0.34926
1911.56,0.351457
1912.27,0.354117
1912.97,0.356546
1913.68,0.360015
1914.39,0.364063
1915.09,0.367417
1915.8,0.371349
1916.51,0.376553
1917.22,0.381295
1917.93,0.385574
1918.64,0.390547
1919.35,0.395173
1920.06,0.399336
1920.77,0.404425
1921.48,0.40986
1922.19,0.41518
1922.91,0.420384
1923.62,0.425126
1924.33,0.430214
1925.05,0.435534
1925.76,0.440276
1926.48,0.444324
1927.19,0.448256
1927.91,0.452766
1928.63,0.457161
1929.35,0.461555
1930.07,0.46595
1930.78,0.469998
1931.5,0.473352
1932.22,0.476821
1932.94,0.480637
1933.66,0.484107
1934.39,0.487576
1935.11,0.490814
1935.83,0.494053
1936.55,0.49706
1937.28,0.500182
1938.0,0.503189
1938.73,0.505849
1939.45,0.508624
1940.18,0.511516
1940.9,0.514176
1941.63,0.517067
1942.36,0.519611
1943.09,0.521693
1943.81,0.523659
1944.54,0.525856
1945.27,0.528054
1946.0,0.530598
1946.73,0.532564
1947.47,0.534645
1948.2,0.53719
1948.93,0.53985
1949.66,0.541931
1950.4,0.543782
1951.13,0.545516
1951.86,0.546789
1952.6,0.548639
1953.34,0.550605
1954.07,0.55234
1954.81,0.554537
1955.55,0.556503
1956.29,0.558007
1957.02,0.559741
1957.76,0.56136
1958.5,0.563095
1959.24,0.564946
1959.98,0.566912
1960.72,0.568762
1961.47,0.570381
1962.21,0.571653
1962.95,0.573157
1963.7,0.574891
1964.44,0.576857
1965.18,0.578361
1965.93,0.579864
1966.67,0.581946
1967.42,0.583912
1968.17,0.585531
1968.92,0.587034
1969.66,0.588538
1970.41,0.590388
1971.16,0.591892
1971.91,0.593626
1972.66,0.595824
1973.41,0.597674
1974.16,0.599062
1974.92,0.600797
1975.67,0.602878
1976.42,0.604729
1977.18,0.60681
1977.93,0.60843
1978.69,0.609817
1979.44,0.611668
1980.2,0.613518
1980.95,0.615368
1981.71,0.617103
1982.47,0.618838
1983.23,0.62092
1983.99,0.623117
1984.74,0.625314
1985.51,0.62728
1986.27,0.629015
1987.03,0.630403
1987.79,0.632138
1988.55,0.634451
1989.32,0.636417
1990.08,0.638267
1990.84,0.640464
1991.61,0.642546
1992.37,0.644512
1993.14,0.646709
1993.9,0.64856
1994.67,0.650179
1995.44,0.652376
1996.21,0.654458
1996.98,0.656077
1997.75,0.657812
1998.52,0.659431
1999.29,0.661397
2000.06,0.663941
2000.83,0.666023
2001.6,0.667758
2002.38,0.669492
2003.15,0.671111
2003.93,0.673309
2004.7,0.675043
2005.48,0.676663
2006.25,0.678975
2007.03,0.680941
2007.81,0.682445
2008.58,0.684527
2009.36,0.686608
2010.14,0.688227
2010.92,0.690078
2011.7,0.692044
2012.48,0.69401
2013.26,0.695745
2014.05,0.697479
2014.83,0.699098
2015.61,0.700833
2016.4,0.702915
2017.18,0.704534
2017.97,0.705806
2018.75,0.707194
2019.54,0.708929
2020.32,0.710548
2021.11,0.712514
2021.9,0.714017
2022.69,0.715289
2023.48,0.71633
2024.27,0.717602
2025.06,0.719453
2025.85,0.72084
2026.64,0.722228
2027.44,0.7235
2028.23,0.724888
2029.02,0.726045
2029.82,0.727664
2030.61,0.72882
2031.41,0.729283
2032.2,0.731017
2033.0,0.732984
2033.8,0.733909
2034.6,0.734834
2035.4,0.736222
2036.2,0.737147
2037.0,0.737725
2037.8,0.738766
2038.6,0.739807
2039.4,0.740616
2040.2,0.741657
2041.01,0.742814
2041.81,0.74397
2042.61,0.744896
2043.42,0.745358
2044.22,0.745821
2045.03,0.747208
2045.84,0.748365
2046.65,0.749059
2047.46,0.749637
2048.26,0.749868
2049.07,0.750215
2049.88,0.751372
2050.69,0.752528
2051.51,0.752875
2052.32,0.752644
2053.13,0.753222
2053.94,0.754494
2054.76,0.75542
2055.57,0.755304
2056.39,0.755073
2057.2,0.755535
2058.02,0.756229
2058.84,0.75646
2059.66,0.75646
2060.48,0.756923
2061.29,0.757386
2062.11,0.757501
2062.94,0.757964
2063.76,0.758311
2064.58,0.758426
2065.4,0.758426
2066.22,0.758773
2067.05,0.758889
2067.87,0.75912
2068.7,0.759583
2069.52,0.75993
2070.35,0.759814
2071.18,0.759814
2072.0,0.759583
2072.83,0.759814
2073.66,0.760161
2074.49,0.760045
2075.32,0.759583
2076.15,0.759814
2076.98,0.759698
2077.82,0.759352
2078.65,0.758052
2079.48,0.758052
2080.32,0.758525
2081.15,0.758525
2081.99,0.758407
2082.83,0.758052
2083.66,0.758997
2084.5,0.759115
2085.34,0.758643
2086.18,0.758288
2087.02,0.758761
2087.86,0.758052
2088.7,0.755926
2089.54,0.756162
2090.39,0.756989
2091.23,0.756989
2092.07,0.756516
2092.92,0.756634
2093.76,0.755808
2094.61,0.755571
2095.45,0.756162
2096.3,0.757225
2097.15,0.756871
2098.0,0.755926
2098.85,0.755926
2099.7,0.756044
2100.55,0.756634
2101.4,0.756516
2102.25,0.75569
2103.1,0.755217
2103.96,0.755335
2104.81,0.756044
2105.67,0.756162
2106.52,0.75569
2107.38,0.755217
2108.24,0.755335
2109.09,0.755453
2109.95,0.754744
2110.81,0.755808
2111.67,0.756516
2112.53,0.756516
2113.39,0.755571
2114.25,0.756162
2115.12,0.756871
2115.98,0.756753
2116.84,0.75628
2117.71,0.757225
2118.58,0.756871
2119.44,0.756162
2120.31,0.756044
2121.18,0.756989
2122.04,0.758997
2122.91,0.759942
2123.78,0.759115
2124.65,0.758525
2125.52,0.757816
2126.4,0.758288
2127.27,0.758997
2128.14,0.758997
2129.02,0.758407
2129.89,0.758525
2130.77,0.758525
2131.64,0.757934
2132.52,0.758288
2133.4,0.758879
2134.27,0.758643
2135.15,0.75817
2136.03,0.757816
2136.91,0.756753
2137.79,0.756398
2138.68,0.756753
2139.56,0.756753
2140.44,0.756753
2141.33,0.755571
2142.21,0.755217
2143.1,0.75569
2143.99,0.756989
2144.87,0.757225
2145.76,0.75628
2146.65,0.755571
2147.54,0.754508
2148.43,0.755453
2149.32,0.756634
2150.21,0.756634
2151.1,0.75569
2151.99,0.754272
2152.89,0.753563
2153.78,0.754036
2154.68,0.753327
2155.57,0.751791
2156.47,0.7512
2157.37,0.750492
2158.27,0.750728
2159.16,0.750374
2160.06,0.749428
2160.96,0.74872
2161.86,0.74872
2162.77,0.748011
2163.67,0.746239
2164.57,0.744821
2165.48,0.743876
2166.38,0.742695
2167.29,0.740805
2168.2,0.739033
2169.1,0.737379
2170.01,0.735725
2170.92,0.734308
2171.83,0.73289
2172.74,0.731591
2173.65,0.7297
2174.56,0.728047
2175.47,0.725566
2176.39,0.722376
2177.3,0.719777
2178.22,0.716352
2179.13,0.712689
2180.05,0.7095
2180.96,0.706429
2181.88,0.703239
2182.8,0.699813
2183.72,0.695797
2184.64,0.691308
2185.56,0.686819
2186.48,0.68233
2187.41,0.677014
2188.33,0.671816
2189.25,0.667091
2190.18,0.660357
2191.1,0.65386
2192.03,0.648189
2192.96,0.64181
2193.89,0.635313
2194.82,0.62858
2195.74,0.620074
2196.68,0.611332
2197.61,0.602591
2198.54,0.594203
2199.47,0.585816
2200.4,0.576129
2201.34,0.567151
2202.28,0.558291
2203.21,0.548959
2204.15,0.540099
2205.08,0.531593
2206.02,0.522852
2206.96,0.515291
2207.9,0.508203
2208.84,0.501942
2209.78,0.496272
2210.73,0.490602
2211.67,0.485876
2212.61,0.482569
2213.56,0.480678
2214.5,0.480206
2215.45,0.480442
2216.4,0.481505
2217.35,0.483514
2218.3,0.486467
2219.24,0.490129
2220.2,0.494736
2221.15,0.498516
2222.1,0.501942
2223.05,0.506195
2224.0,0.510093
2224.96,0.513519
2225.91,0.515646
2226.87,0.51789
2227.83,0.52108
2228.79,0.524742
2229.74,0.527222
2230.7,0.530412
2231.66,0.533602
2232.63,0.536082
2233.59,0.53939
2234.55,0.543052
2235.51,0.546832
2236.48,0.549904
2237.44,0.552503
2238.41,0.555692
2239.38,0.559
2240.34,0.561835
2241.31,0.564434
2242.28,0.567269
2243.25,0.571522
2244.22,0.575302
2245.19,0.578137
2246.17,0.580736
2247.14,0.582981
2248.12,0.585698
2249.09,0.588887
2250.07,0.59125
2251.04,0.592786
2252.02,0.595857
2253.0,0.599401
2253.98,0.602945
2254.96,0.606607
2255.94,0.609679
2256.92,0.612514
2257.91,0.615231
2258.89,0.617475
2259.88,0.620192
2260.86,0.622673
2261.85,0.625154
2262.83,0.627753
2263.82,0.62917
2264.81,0.630233
2265.8,0.631533
2266.79,0.632242
2267.78,0.633069
2268.78,0.634486
2269.77,0.636376
2270.76,0.63614
2271.76,0.634959
2272.75,0.635195
2273.75,0.635904
2274.75,0.635195
2275.75,0.633777
2276.75,0.633423
2277.75,0.632832
2278.75,0.630588
2279.75,0.629407
2280.75,0.627635
2281.76,0.626217
2282.76,0.624799
2283.77,0.623027
2284.77,0.620547
2285.78,0.61783
2286.79,0.616058
2287.8,0.614404
2288.81,0.612277
2289.82,0.610387
2290.83,0.60767
2291.84,0.605071
2292.86,0.602591
2293.87,0.599874
2294.89,0.597275
2295.91,0.59444
2296.92,0.591722
2297.94,0.589005
2298.96,0.585816
2299.98,0.582744
2301.0,0.5805
2302.02,0.578137
2303.04,0.575656
2304.07,0.573176
2305.09,0.570222
2306.12,0.567151
2307.15,0.563725
2308.17,0.561244
2309.2,0.559591
2310.23,0.55711
2311.26,0.553802
2312.29,0.550849
2313.32,0.548486
2314.35,0.546005
2315.39,0.543288
2316.42,0.540808
2317.46,0.537854
2318.5,0.535019
2319.53,0.531948
2320.57,0.529349
2321.61,0.526868
2322.65,0.52486
2323.69,0.523206
2324.73,0.52108
2325.78,0.519544
2326.82,0.518244
2327.86,0.515764
2328.91,0.513637
2329.96,0.511983
2331.01,0.511038
2332.05,0.509266
2333.1,0.507258
2334.15,0.505014
2335.21,0.503478
2336.26,0.501706
2337.31,0.499816
2338.36,0.497808
2339.42,0.495681
2340.48,0.494027
2341.53,0.492492
2342.59,0.490838
2343.65,0.488948
2344.71,0.486939
2345.77,0.485876
2346.83,0.484341
2347.9,0.483159
2348.96,0.481978
2350.02,0.479497
2351.09,0.477016
2352.16,0.475126
2353.23,0.473709
2354.29,0.472173
2355.36,0.470047
2356.43,0.468275
2357.51,0.465912
2358.58,0.463549
2359.65,0.461777
2360.73,0.460124
2361.8,0.45906
2362.88,0.457643
2363.96,0.45528
2365.03,0.453272
2366.11,0.4515
2367.19,0.449728
2368.27,0.447483
2369.36,0.446184
2370.44,0.44453
2371.53,0.442758
2372.61,0.441577
2373.7,0.439687
2374.78,0.437442
2375.87,0.435907
2376.96,0.434607
2378.05,0.432363
2379.14,0.430472
2380.24,0.428937
2381.33,0.426574
2382.42,0.425747
2383.52,0.424684
2384.61,0.42303
2385.71,0.421613
2386.81,0.419132
2387.91,0.416297
2389.01,0.414288
2390.11,0.413225
2391.22,0.411689
2392.32,0.410036
2393.42,0.408854
2394.53,0.407437
2395.64,0.405665
2396.74,0.404011
2397.85,0.403066
2398.96,0.401885
2400.07,0.401176
2401.18,0.399286
2402.3,0.397986
2403.41,0.397277
2404.52,0.396214
2405.64,0.395269
2406.76,0.395033
2407.88,0.394088
2408.99,0.392552
2410.11,0.391489
2411.23,0.390189
2412.36,0.38889
2413.48,0.388063
2414.6,0.386527
2415.73,0.38511
2416.85,0.384755
2417.98,0.384755
2419.11,0.383692
2420.24,0.382865
2421.37,0.381448
2422.5,0.379794
2423.64,0.378494
2424.77,0.377077
2425.9,0.376014
2427.04,0.375423
2428.18,0.374832
2429.31,0.373887
2430.45,0.372115
2431.59,0.370698
2432.73,0.369516
2433.88,0.368808
2435.02,0.367744
2436.16,0.366091
2437.31,0.364082
2438.45,0.362665
2439.6,0.36172
2440.75,0.360893
2441.9,0.359239
2443.05,0.358058
2444.2,0.356994
2445.35,0.356168
2446.51,0.355341
2447.67,0.35475
2448.82,0.353805
2449.98,0.351915
2451.14,0.350615
2452.3,0.349788
2453.46,0.348961
2454.62,0.348016
2455.78,0.347662
2456.94,0.347544
2458.11,0.346953
2459.28,0.346363
2460.44,0.345418
2461.61,0.344945
2462.78,0.344827
2463.95,0.344709
2465.12,0.344236
2466.3,0.343409
2467.47,0.342346
2468.65,0.341874
2469.82,0.341283
2471.0,0.34081
2472.18,0.339983
2473.36,0.339511
2474.54,0.339157
2475.72,0.339038
2476.9,0.337975
2478.08,0.336912
2479.27,0.335731
2480.46,0.334904
2481.64,0.334786
2482.83,0.334313
2484.02,0.333368
2485.21,0.332187
2486.4,0.331242
2487.6,0.330415
2488.79,0.329588
2489.99,0.328997
2491.18,0.327462
2492.38,0.326162
2493.58,0.325453
2494.78,0.324863
2495.98,0.323327
2497.18,0.321201
2498.39,0.320137
2499.59,0.31931
2500.8,0.318129
2502.01,0.31683
2503.21,0.31494
2504.42,0.313758
2505.63,0.313049
2506.84,0.311868
2508.06,0.310332
2509.27,0.309269
2510.49,0.307733
2511.7,0.30667
2512.92,0.305371
2514.14,0.303953
2515.36,0.303008
2516.58,0.301709
2517.8,0.300764
2519.03,0.300055
2520.25,0.298519
2521.48,0.29722
2522.7,0.296747
2523.93,0.296511
2525.16,0.295448
2526.39,0.294148
2527.62,0.292967
2528.86,0.292258
2530.09,0.291313
2531.33,0.290014
2532.56,0.288951
2533.8,0.288596
2535.04,0.287533
2536.28,0.286352
2537.52,0.285643
2538.76,0.285407
2540.01,0.284934
2541.25,0.283753
2542.5,0.282099
2543.75,0.281508
2544.99,0.28139
2546.24,0.280799
2547.49,0.279972
2548.75,0.279618
2550.0,0.278791
2551.26,0.278082
2552.51,0.277255
2553.77,0.277137
2555.03,0.276665
2556.29,0.276192
2557.55,0.275602
2558.81,0.274066
2560.08,0.272412
2561.34,0.271703
2562.61,0.270994
2563.88,0.270876
2565.14,0.27064
2566.41,0.270049
2567.68,0.269459
2568.96,0.26875
2570.23,0.268632
2571.51,0.267923
2572.78,0.265915
2574.06,0.266151
2575.34,0.266151
2576.62,0.265797
2577.9,0.265679
2579.18,0.265324
2580.47,0.263788
2581.75,0.262843
2583.04,0.26178
2584.32,0.260953
2585.61,0.260481
2586.9,0.260126
2588.2,0.260126
2589.49,0.260008
2590.78,0.259299
2592.08,0.257527
2593.37,0.254102
2594.67,0.252212
2595.97,0.253865
2597.27,0.254692
2598.57,0.254574
2599.88,0.253629
2601.18,0.252448
2602.49,0.251148
2603.79,0.249022
2605.1,0.247604
2606.41,0.24725
2607.72,0.247604
2609.03,0.247368
2610.35,0.246305
2611.66,0.245005
2612.98,0.243706
2614.3,0.242761
2615.62,0.240871
2616.94,0.23969
2618.26,0.239335
2619.58,0.237209
2620.91,0.236736
2622.23,0.236736
2623.56,0.236027
2624.89,0.233901
2626.22,0.231538
2627.55,0.231184
2628.88,0.229176
2630.21,0.226931
2631.55,0.226341
2632.89,0.224805
2634.22,0.223624
2635.56,0.222915
2636.9,0.221497
2638.25,0.219489
2639.59,0.218071
2640.93,0.216299
2642.28,0.214055
2643.63,0.212165
2644.98,0.210157
2646.33,0.20803
2647.68,0.20614
2649.03,0.203896
2650.39,0.201297
2651.74,0.19858
2653.1,0.196571
2654.46,0.194327
2655.82,0.192201
2657.18,0.189956
2658.54,0.186766
2659.9,0.183813
2661.27,0.181687
2662.64,0.17956
2664.01,0.175662
2665.38,0.171646
2666.74,0.169165
2668.12,0.166802
2669.49,0.162195
2670.87,0.159005
2672.24,0.157352
2673.62,0.154398
2675.0,0.150736
2676.38,0.146838
2677.76,0.143648
2679.15,0.140695
2680.54,0.137506
2681.92,0.133607
2683.31,0.129827
2684.7,0.125692
2686.09,0.121558
2687.48,0.117305
2688.88,0.113407
2690.27,0.10939
2691.67,0.104665
2693.07,0.100058
2694.47,0.095923
2695.87,0.092143
2697.27,0.088008
2698.67,0.08411
2700.08,0.08033
2701.49,0.077376
2702.9,0.07525
2704.31,0.072533
2705.72,0.069698
2707.13,0.067571
2708.54,0.065563
2709.96,0.063201
2711.38,0.061429
2712.8,0.060129
2714.22,0.058475
2715.64,0.056585
2717.06,0.055168
2718.49,0.053396
2719.91,0.051742
2721.34,0.050679
2722.77,0.049615
2724.2,0.049261
2725.63,0.049497
2727.07,0.049379
2728.5,0.048788
2729.94,0.047725
2731.38,0.047016
2732.82,0.047016
2734.26,0.047135
2735.7,0.047016
2737.15,0.046898
2738.59,0.046662
2740.04,0.04619
2741.49,0.046071
2742.94,0.045953
2744.39,0.046071
2745.84,0.046071
2747.3,0.046426
2748.76,0.046426
2750.21,0.046308
2751.67,0.046071
2753.14,0.046071
2754.6,0.045835
2756.06,0.046308
2757.53,0.046662
2759.0,0.046898
2760.46,0.047489
2761.94,0.048434
2763.41,0.049143
2764.88,0.049379
2766.36,0.049261
2767.83,0.049734
2769.31,0.050442
2770.79,0.050442
2772.27,0.050679
2773.76,0.051269
2775.24,0.051978
2776.73,0.052214
2778.22,0.052332
2779.71,0.052805
2781.2,0.052805
2782.69,0.052923
2784.18,0.053159
2785.68,0.052805
2787.18,0.052805
2788.68,0.053277
2790.18,0.053396
2791.68,0.053632
2793.19,0.054223
2794.69,0.054695
2796.2,0.053986
2797.71,0.053986
2799.22,0.054577
2800.73,0.054459
2802.24,0.053986
2803.76,0.053868
2805.28,0.053868
2806.8,0.053632
2808.32,0.05375
2809.84,0.053868
2811.36,0.054223
2812.89,0.054577
2814.42,0.054104
2815.94,0.053868
2817.48,0.053632
2819.01,0.053632
2820.54,0.053986
2822.08,0.054104
2823.61,0.053986
2825.15,0.05375
2826.69,0.053868
2828.23,0.05375
2829.78,0.053514
2831.32,0.05375
2832.87,0.053632
2834.42,0.05375
2835.97,0.05375
2837.52,0.053868
2839.08,0.053868
2840.63,0.053986
2842.19,0.053868
2843.75,0.053868
2845.31,0.053986
2846.87,0.053986
2848.44,0.05375
2850.0,0.053514
2851.57,0.05375
2853.14,0.05375
2854.71,0.05375
2856.28,0.05375
2857.86,0.053514
2859.43,0.053514
2861.01,0.053277
2862.59,0.053277
2864.17,0.053632
2865.76,0.05375
2867.34,0.053514
2868.93,0.053632
2870.52,0.053868
2872.11,0.053868
2873.7,0.053868
2875.29,0.054104
2876.89,0.053986
2878.49,0.053396
2880.08,0.053159
2881.69,0.053514
2883.29,0.05375
2884.89,0.053632
2886.5,0.053514
2888.11,0.053277
2889.72,0.053277
2891.33,0.053396
2892.94,0.053041
2894.56,0.053159
2896.17,0.053159
2897.79,0.053277
2899.42,0.053514
2901.04,0.053277
2902.66,0.053514
2904.29,0.053986
2905.92,0.053986
2907.55,0.053986
2909.18,0.054104
2910.81,0.053868
2912.45,0.054104
2914.08,0.054341
2915.72,0.054104
2917.36,0.054104
2919.01,0.05375
2920.65,0.05375
2922.3,0.053986
2923.94,0.054223
2925.59,0.054223
2927.25,0.054104
2928.9,0.054341
2930.56,0.054459
2932.21,0.054459
2933.87,0.054341
2935.53,0.054459
2937.2,0.054577
2938.86,0.054577
2940.53,0.054695
2942.2,0.054931
2943.87,0.055049
2945.54,0.054931
2947.22,0.054931
2948.89,0.054813
2950.57,0.054577
2952.25,0.054931
2953.93,0.055168
2955.62,0.055286
2957.3,0.055522
2958.99,0.055522
2960.68,0.055168
2962.37,0.055168
2964.07,0.055522
2965.76,0.055994
2967.46,0.056349
2969.16,0.056349
2970.86,0.056113
2972.56,0.055876
2974.27,0.055994
2975.98,0.055876
2977.69,0.055994
2979.4,0.056349
2981.11,0.056349
2982.83,0.056113
2984.54,0.056349
2986.26,0.056585
2987.98,0.056703
2989.71,0.056585
2991.43,0.057058
2993.16,0.057294
2994.89,0.057294
2996.62,0.057058
2998.35,0.05694
3000.09,0.057058
3001.83,0.05694
3003.57,0.057058
3005.31,0.057412
3007.05,0.057766
3008.79,0.05753
3010.54,0.057648
3012.29,0.057766
3014.04,0.058003
3015.8,0.058121
3017.55,0.057885
3019.31,0.05753
3021.07,0.057885
3022.83,0.058121
3024.59,0.058121
3026.36,0.058239
3028.13,0.058239
3029.9,0.058475
3031.67,0.058712
3033.44,0.058475
3035.22,0.058357
3037.0,0.058475
3038.78,0.058357
3040.56,0.058593
3042.34,0.058593
3044.13,0.058357
3045.92,0.058593
3047.71,0.058712
3049.5,0.05883
3051.3,0.058948
3053.09,0.058593
3054.89,0.058712
3056.69,0.058593
3058.5,0.058357
3060.3,0.058712
3062.11,0.05883
3063.92,0.05883
3065.73,0.05883
3067.55,0.058593
3069.36,0.058712
3071.18,0.058712
3073.0,0.058712
3074.82,0.05883
3076.65,0.059184
3078.48,0.059302
3080.31,0.05942
3082.14,0.05942
3083.97,0.059302
3085.8,0.05942
3087.64,0.059775
3089.48,0.059775
3091.33,0.059893
3093.17,0.060129
3095.02,0.060247
3096.87,0.060129
3098.72,0.059893
3100.57,0.060011
3102.43,0.060365
3104.28,0.060365
3106.14,0.060365
3108.01,0.060247
3109.87,0.060365
3111.74,0.060956
3113.61,0.06131
3115.48,0.061547
3117.35,0.061665
3119.23,0.062019
3121.1,0.062137
3122.98,0.062137
3124.87,0.062137
3126.75,0.062255
3128.64,0.062846
3130.53,0.063082
3132.42,0.062964
3134.31,0.062964
3136.21,0.063319
3138.11,0.063437
3140.01,0.063319
3141.91,0.063673
3143.82,0.064264
3145.73,0.064382
3147.64,0.064264
3149.55,0.064382
3151.46,0.064973
3153.38,0.065091
3155.3,0.065091
3157.22,0.065445
3159.14,0.065799
3161.07,0.065918
3163.0,0.066036
3164.93,0.066036
3166.86,0.066272
3168.8,0.066744
3170.74,0.066981
3172.68,0.067217
3174.62,0.067571
3176.56,0.067808
3178.51,0.067808
3180.46,0.067926
3182.42,0.068162
3184.37,0.068398
3186.33,0.068635
3188.29,0.068871
3190.25,0.069225
3192.21,0.06958
3194.18,0.06958
3196.15,0.06958
3198.12,0.069934
3200.09,0.070288
3202.07,0.070643
3204.05,0.070761
3206.03,0.070879
3208.02,0.071352
3210.0,0.071942
3211.99,0.072179
3213.98,0.07206
3215.98,0.07206
3217.97,0.072415
3219.97,0.072887
3221.97,0.073242
3223.98,0.073478
3225.98,0.073951
3227.99,0.074069
3230.0,0.074305
3232.02,0.074659
3234.03,0.075014
3236.05,0.07525
3238.07,0.075486
3240.1,0.075723
3242.12,0.076313
3244.15,0.076786
3246.18,0.07714
3248.22,0.077258
3250.25,0.077258
3252.29,0.077731
3254.33,0.078203
3256.38,0.078676
3258.43,0.079148
3260.47,0.079385
3262.53,0.079503
3264.58,0.079621
3266.64,0.079975
3268.7,0.080448
3270.76,0.080684
3272.82,0.081275
3274.89,0.081984
3276.96,0.082338
3279.04,0.08281
3281.11,0.083047
3283.19,0.083283
3285.27,0.083519
3287.35,0.084346
3289.44,0.084937
3291.53,0.085291
3293.62,0.085646
3295.71,0.085882
3297.81,0.086591
3299.91,0.087181
3302.01,0.087536
3304.11,0.088008
3306.22,0.088599
3308.33,0.088953
3310.44,0.089662
3312.56,0.090135
3314.68,0.090371
3316.8,0.090843
3318.92,0.09108
3321.05,0.091434
3323.18,0.092261
3325.31,0.09297
3327.44,0.09356
3329.58,0.094151
3331.72,0.094624
3333.86,0.095214
3336.01,0.095687
3338.16,0.096277
3340.31,0.096632
3342.46,0.096632
3344.61,0.097341
3346.77,0.097931
3348.94,0.098404
3351.1,0.098876
3353.27,0.099703
3355.44,0.100294
3357.61,0.10053
3359.79,0.101003
3361.97,0.101475
3364.15,0.10183
3366.33,0.102302
3368.52,0.102657
3370.71,0.103247
3372.9,0.104074
3375.1,0.104783
3377.3,0.105255
3379.5,0.10561
3381.71,0.105728
3383.91,0.106319
3386.12,0.107027
3388.34,0.107973
3390.55,0.109154
3392.77,0.109744
3394.99,0.110099
3397.22,0.110926
3399.45,0.11128
3401.68,0.111753
3403.91,0.112225
3406.15,0.112698
3408.39,0.113525
3410.63,0.114234
3412.87,0.114706
3415.12,0.11506
3417.37,0.115887
3419.63,0.117069
3421.88,0.118604
3424.14,0.119549
3426.41,0.120494
3428.67,0.121794
3430.94,0.122975
3433.21,0.124038
3435.49,0.125102
3437.77,0.126047
3440.05,0.12711
3442.33,0.128409
3444.62,0.129354
3446.91,0.130299
3449.2,0.131481
3451.5,0.132544
3453.8,0.133607
3456.1,0.134788
3458.41,0.136088
3460.72,0.137387
3463.03,0.138214
3465.34,0.139396
3467.66,0.140695
3469.98,0.14164
3472.31,0.142231
3474.63,0.143058
3476.96,0.144003
3479.3,0.144593
3481.64,0.14542
3483.97,0.146602
3486.32,0.147547
3488.66,0.148492
3491.01,0.149201
3493.36,0.150146
3495.72,0.151091
3498.08,0.151681
3500.44,0.152626
3502.81,0.153926
3505.18,0.155462
3507.55,0.157233
3509.92,0.159005
3512.3,0.160541
3514.68,0.161959
3517.06,0.163494
3519.45,0.164912
3521.84,0.16633
3524.24,0.167865
3526.64,0.169401
3529.04,0.170937
3531.44,0.172473
3533.85,0.174008
3536.26,0.174953
3538.67,0.176253
3541.09,0.178025
3543.51,0.179324
3545.93,0.180269
3548.36,0.181332
3550.79,0.182632
3553.22,0.184049
3555.66,0.185349
3558.1,0.186648
3560.54,0.188066
3562.99,0.189483
3565.44,0.190547
3567.9,0.19161
3570.35,0.192909
3572.81,0.194209
3575.28,0.195272
3577.75,0.196217
3580.22,0.197516
3582.69,0.198934
3585.17,0.199997
3587.65,0.201297
3590.14,0.202478
3592.62,0.203659
3595.11,0.204723
3597.61,0.205786
3600.11,0.207085
3602.61,0.20803
3605.11,0.208975
3607.62,0.210157
3610.14,0.21122
3612.65,0.212165
3615.17,0.213228
3617.69,0.214527
3620.22,0.215709
3622.75,0.216772
3625.28,0.217953
3627.82,0.219135
3630.36,0.220316
3632.9,0.221261
3635.45,0.222088
3638.0,0.223033
3640.56,0.224096
3643.12,0.225159
3645.68,0.226223
3648.24,0.226931
3650.81,0.227994
3653.39,0.229176
3655.96,0.230121
3658.54,0.23083
3661.13,0.231657
3663.71,0.232956
3666.3,0.233901
3668.9,0.234728
3671.5,0.235673
3674.1,0.236854
3676.7,0.237563
3679.31,0.238626
3681.93,0.239571
3684.54,0.240398
3687.17,0.241462
3689.79,0.242407
3692.42,0.243234
3695.05,0.244297
3697.69,0.24536
3700.32,0.246069
3702.97,0.246896
3705.61,0.247959
3708.27,0.24914
3710.92,0.250085
3713.58,0.251148
3716.24,0.25233
3718.91,0.253275
3721.58,0.25422
3724.25,0.255401
3726.93,0.256582
3729.61,0.257646
3732.29,0.258354
3734.98,0.259063
3737.67,0.260126
3740.37,0.261426
3743.07,0.262725
3745.78,0.263788
3748.49,0.264615
3751.2,0.265679
3753.91,0.266742
3756.63,0.267805
3759.36,0.268514
3762.09,0.269577
3764.82,0.27064
3767.55,0.271467
3770.29,0.272294
3773.04,0.273239
3775.78,0.274302
3778.54,0.275011
3781.29,0.27572
3784.05,0.276665
3786.82,0.27761
3789.59,0.278437
3792.36,0.279264
3795.13,0.280209
3797.92,0.280918
3800.7,0.281508
3803.49,0.282335
3806.28,0.283162
3809.08,0.283753
3811.88,0.284225
3814.68,0.284816
3817.49,0.285407
3820.31,0.285879
3823.12,0.286352
3825.94,0.286824
3828.77,0.287297
3831.6,0.288124
3834.43,0.288832
3837.27,0.289305
3840.11,0.289777
3842.96,0.290014
3845.81,0.29025
3848.67,0.290486
3851.53,0.290841
3854.39,0.291077
3857.26,0.291549
3860.13,0.292022
3863.01,0.292376
3865.89,0.292613
3868.77,0.292849
3871.66,0.292967
3874.55,0.293203
3877.45,0.29344
3880.35,0.29344
3883.26,0.293558
3886.17,0.293912
3889.09,0.293912
3892.01,0.293794
3894.93,0.293912
3897.86,0.29403
3900.79,0.294266
3903.73,0.294385
3906.67,0.294385
3909.62,0.294266
3912.57,0.294385
3915.52,0.294385
3918.48,0.29403
3921.45,0.294266
3924.42,0.294385
3927.39,0.294385
3930.37,0.294266
3933.35,0.29403
3936.34,0.294148
3939.33,0.293912
3942.32,0.293676
3945.32,0.293321
3948.33,0.292967
3951.34,0.292731
3954.35,0.292613
3957.37,0.29214
3960.39,0.291904
3963.42,0.291549
3966.45,0.290959
3969.49,0.29025
3972.53,0.289659
3975.58,0.289187
3978.63,0.28836
3981.68,0.287533
3984.75,0.286706
3987.81,0.285997
3990.88,0.285052
3993.95,0.284107
3997.03,0.28328
4000.12,0.282099
4003.21,0.280918
4006.3,0.279972
4009.4,0.278909
4012.5,0.27761
4015.61,0.276074
4018.72,0.274893
4021.84,0.273593
4024.96,0.272294
4028.09,0.270876
4031.22,0.269695
4034.36,0.268396
4037.5,0.267096
4040.65,0.265797
4043.8,0.264261
4046.96,0.262725
4050.12,0.261544
4053.29,0.260481
4056.46,0.258945
4059.64,0.257291
4062.82,0.255992
4066.0,0.25481
4069.19,0.253747
4072.39,0.252448
4075.59,0.251148
4078.8,0.249731
4082.01,0.248313
4085.23,0.247014
4088.45,0.245832
4091.68,0.244887
4094.91,0.243942
4098.15,0.242525
4101.39,0.241225
4104.63,0.240044
4107.89,0.238863
4111.14,0.237681
4114.41,0.236854
4117.67,0.235791
4120.95,0.23461
4124.23,0.233547
4127.51,0.232483
4130.8,0.23142
4134.09,0.230239
4137.39,0.229058
4140.7,0.227876
4144.01,0.226695
4147.32,0.225868
4150.64,0.224923
4153.97,0.224214
4157.3,0.223387
4160.64,0.222324
4163.98,0.221261
4167.33,0.220434
4170.68,0.219489
4174.04,0.218544
4177.4,0.217599
4180.77,0.21689
4184.14,0.216063
4187.52,0.215118
4190.91,0.214409
4194.3,0.213582
4197.69,0.212637
4201.1,0.211929
4204.5,0.21122
4207.92,0.210511
4211.34,0.210275
4214.76,0.20992
4218.19,0.20933
4221.62,0.208975
4225.06,0.208739
4228.51,0.208148
4231.96,0.207203
4235.42,0.206376
4238.88,0.205786
4242.35,0.205077
4245.83,0.20425
4249.31,0.203305
4252.79,0.202005
4256.28,0.20106
4259.78,0.200706
4263.29,0.200234
4266.79,0.199997
4270.31,0.199761
4273.83,0.19917
4277.35,0.19858
4280.89,0.198107
4284.42,0.197398
4287.97,0.196808
4291.52,0.196099
4295.07,0.195508
4298.63,0.195036
4302.2,0.194563
4305.78,0.193854
4309.35,0.193382
4312.94,0.193027
4316.53,0.192555
4320.13,0.192201
4323.73,0.191728
4327.34,0.191374
4330.96,0.190901
4334.58,0.190429
4338.21,0.189956
4341.84,0.189365
4345.48,0.189011
4349.12,0.188775
4352.77,0.188302
4356.43,0.188066
4360.1,0.188066
4363.76,0.187712
4367.44,0.187475
4371.12,0.187239
4374.81,0.186885
4378.51,0.186648
4382.21,0.186294
4385.92,0.18594
4389.63,0.185821
4393.35,0.185585
4397.08,0.185467
4400.81,0.185349
4404.55,0.184876
4408.29,0.184758
4412.04,0.184876
4415.8,0.184522
4419.57,0.184286
4423.34,0.184049
4427.12,0.183931
4430.9,0.183695
4434.69,0.183577
4438.49,0.183341
4442.29,0.182986
4446.1,0.182868
4449.92,0.182868
4453.74,0.182514
4457.57,0.182396
4461.41,0.182277
4465.25,0.182159
4469.1,0.181923
4472.95,0.181569
4476.82,0.181214
4480.69,0.181096
4484.56,0.180978
4488.44,0.180742
4492.33,0.180505
4496.23,0.180269
4500.13,0.179915
4504.04,0.179679
4507.96,0.179679
4511.88,0.17956
4515.81,0.179442
4519.75,0.179206
4523.69,0.178615
4527.65,0.178261
4531.6,0.178261
4535.57,0.177907
4539.54,0.177552
4543.52,0.177316
4547.5,0.176962
4551.5,0.176725
4555.5,0.176607
4559.5,0.176489
4563.52,0.176253
4567.54,0.176016
4571.56,0.176016
4575.6,0.175662
4579.64,0.17519
4583.69,0.174953
4587.75,0.174599
4591.81,0.174244
4595.88,0.173772
4599.96,0.173418
4604.04,0.173181
4608.14,0.172709
4612.24,0.172473
4616.34,0.172118
4620.46,0.171764
4624.58,0.171173
4628.71,0.170937
4632.84,0.170582
4636.99,0.170346
4641.14,0.17011
4645.3,0.169755
4649.47,0.169283
4653.64,0.168929
4657.82,0.168574
4662.01,0.168102
4666.21,0.167629
4670.41,0.167157
4674.62,0.16692
4678.84,0.166448
4683.07,0.165857
4687.3,0.165621
4691.54,0.165266
4695.79,0.164912
4700.05,0.164558
4704.31,0.164085
4708.59,0.163376
4712.87,0.162904
4717.15,0.162431
4721.45,0.161959
4725.76,0.161604
4730.07,0.161132
4734.39,0.160541
4738.72,0.160069
4743.05,0.159478
4747.39,0.159005
4751.75,0.158415
4756.1,0.157942
4760.47,0.157706
4764.85,0.157233
4769.23,0.156643
4773.62,0.155816
4778.02,0.155462
4782.43,0.155225
4786.85,0.154635
4791.27,0.154162
4795.7,0.15369
4800.14,0.153217
4804.59,0.152744
4809.05,0.152154
4813.51,0.151681
4817.99,0.151209
4822.47,0.150618
4826.96,0.150382
4831.46,0.149909
4835.96,0.149319
4840.48,0.148846
4845.0,0.148374
4849.54,0.147783
4854.08,0.147547
4858.63,0.146956
4863.18,0.146365
4867.75,0.145775
4872.33,0.145538
4876.91,0.145066
4881.5,0.144475
4886.1,0.144003
4890.71,0.143648
4895.33,0.143176
4899.96,0.142467
4904.59,0.141994
4909.24,0.14164
4913.89,0.141049
4918.55,0.140341
4923.22,0.13975
4927.9,0.139159
4932.59,0.138451
4937.29,0.137742
4942.0,0.137151
4946.71,0.136442
4951.44,0.135852
4956.17,0.135261
4960.91,0.134434
4965.67,0.133725
4970.43,0.133016
4975.2,0.13219
4979.98,0.131481
4984.76,0.130772
4989.56,0.129827
4994.37,0.129118
4999.18,0.128291
5004.01,0.127464
5008.84,0.126519
5013.69,0.125574
5018.54,0.124747
5023.4,0.12392
5028.28,0.122975
5033.16,0.122148
5038.05,0.121203
5042.95,0.120376
5047.86,0.119549
5052.78,0.118604
5057.71,0.117659
5062.65,0.116832
5067.6,0.115887
5072.56,0.114942
5077.53,0.114115
5082.5,0.113525
5087.49,0.112816
5092.49,0.111989
5097.5,0.110926
5102.51,0.109981
5107.54,0.109508
5112.58,0.108918
5117.62,0.108091
5122.68,0.1075
5127.75,0.106909
5132.82,0.106319
5137.91,0.10561
5143.01,0.105019
5148.12,0.104429
5153.23,0.104192
5158.36,0.103838
5163.5,0.103247
5168.65,0.102775
5173.81,0.10242
5178.98,0.101948
5184.15,0.101475
5189.34,0.101121
5194.54,0.100766
5199.75,0.100294
5204.98,0.100058
5210.21,0.099585
5215.45,0.099231
5220.7,0.099113
5225.96,0.099113
5231.23,0.098758
5236.52,0.098286
5241.81,0.097931
5247.12,0.097577
5252.44,0.097459
5257.76,0.097223
5263.1,0.09675
5268.45,0.096277
5273.81,0.095805
5279.18,0.095451
5284.56,0.095096
5289.95,0.094624
5295.36,0.094269
5300.77,0.093915
5306.2,0.09356
5311.63,0.093088
5317.08,0.092497
5322.54,0.092025
5328.01,0.091434
5333.49,0.090725
5338.98,0.090016
5344.49,0.089071
5350.0,0.088244
5355.53,0.087536
5361.07,0.086945
5366.62,0.086473
5372.18,0.085882
5377.75,0.085291
5383.34,0.084582
5388.93,0.083755
5394.54,0.083165
5400.16,0.082456
5405.79,0.081511
5411.44,0.080684
5417.09,0.079857
5422.76,0.079148
5428.43,0.079148
5434.12,0.07903
5439.83,0.078558
5445.54,0.078085
5451.26,0.077731
5457.0,0.077376
5462.75,0.07714
5468.52,0.07714
5474.29,0.07714
5480.08,0.077022
5485.88,0.077022
5491.69,0.077258
5497.51,0.077494
5503.35,0.077613
5509.2,0.077613
5515.06,0.077494
5520.93,0.077613
5526.82,0.077967
5532.71,0.078321
5538.63,0.078676
5544.55,0.079148
5550.49,0.079266
5556.44,0.079385
5562.4,0.079739
5568.37,0.079975
5574.36,0.079739
5580.36,0.079739
5586.37,0.080212
5592.4,0.080566
5598.44,0.080684
5604.49,0.080566
5610.56,0.080566
5616.63,0.080448
5622.73,0.080566
5628.83,0.08033
5634.95,0.079975
5641.08,0.079385
5647.23,0.07903
5653.39,0.078794
5659.56,0.07844
5665.74,0.078085
5671.94,0.077376
5678.15,0.076668
5684.38,0.075841
5690.62,0.074777
5696.87,0.074187
5703.14,0.073242
5709.42,0.071824
5715.72,0.070879
5722.03,0.07017
5728.35,0.069225
5734.69,0.068398
5741.03,0.067335
5747.4,0.066036
5753.78,0.065091
5760.17,0.063673
5766.58,0.061901
5773.0,0.06131
5779.44,0.060838
5785.88,0.059538
5792.35,0.058239
5798.83,0.057058
5805.32,0.055876
5811.83,0.054577
5818.35,0.052923
5824.89,0.05186
5831.45,0.051033
5838.01,0.049852
5844.59,0.048788
5851.19,0.047607
5857.8,0.046544
5864.43,0.045599
5871.07,0.044654
5877.73,0.043
5884.4,0.041819
5891.09,0.04111
5897.79,0.040401
5904.5,0.040165
5911.23,0.039574
5917.98,0.038747
5924.75,0.038038
5931.53,0.037212
5938.32,0.036266
5945.13,0.035912
5951.96,0.035676
5958.8,0.03544
5965.65,0.034731
5972.53,0.03414
5979.42,0.033904
5986.32,0.033549
5993.24,0.033313
6000.18,0.033313
6007.13,0.032841
6014.1,0.032604
6021.08,0.032486
6028.09,0.032486
6035.1,0.032132
6042.14,0.031423
6049.19,0.031069
6056.25,0.031659
6063.34,0.031777
6070.44,0.031423
6077.55,0.031777
6084.69,0.032368
6091.84,0.032841
6099.0,0.033077
6106.19,0.033195
6113.39,0.033431
6120.61,0.034258
6127.84,0.034849
6135.09,0.035203
6142.36,0.035676
6149.65,0.036266
6156.95,0.036739
6164.27,0.037566
6171.61,0.038157
6178.97,0.038275
6186.34,0.038511
6193.73,0.039338
6201.14,0.039929
6208.57,0.040519
6216.01,0.041228
6223.47,0.041937
6230.95,0.042409
6238.45,0.042882
6245.97,0.043709
6253.5,0.044418
6261.06,0.04489
6268.63,0.045245
6276.21,0.045835
6283.82,0.046544
6291.45,0.047371
6299.1,0.048198
6306.76,0.04867
6314.44,0.049497
6322.14,0.050324
6329.86,0.050797
6337.6,0.050797
6345.35,0.051151
6353.13,0.051978
6360.92,0.052569
6368.74,0.052805
6376.57,0.053277
6384.43,0.05375
6392.3,0.054104
6400.19,0.054104
6408.1,0.053514
6416.03,0.053632
6423.98,0.054695
6431.95,0.055168
6439.94,0.055404
6447.95,0.055522
6455.98,0.055876
6464.03,0.055876
6472.1,0.055876
6480.19,0.05564
6488.31,0.055404
6496.44,0.055522
6504.59,0.056231
6512.76,0.056231
6520.95,0.055994
6529.16,0.056231
6537.4,0.056349
6545.65,0.056113
6553.92,0.055876
6562.22,0.055522
6570.54,0.055049
6578.88,0.055286
6587.23,0.055404
6595.61,0.055168
6604.02,0.055168
6612.44,0.055168
6620.89,0.055049
6629.35,0.054223
6637.84,0.053632
6646.35,0.054223
6654.88,0.054341
6663.44,0.053868
6672.01,0.053396
6680.61,0.052923
6689.23,0.052805
6697.88,0.052569
6706.54,0.05186
6715.23,0.051505
6723.94,0.051387
6732.67,0.051269
6741.42,0.050915
6750.2,0.050442
6759.0,0.049852
6767.82,0.049379
6776.67,0.048788
6785.54,0.047962
6794.44,0.047607
6803.35,0.047607
6812.29,0.047253
6821.26,0.046662
6830.24,0.046308
6839.25,0.045953
6848.29,0.045363
6857.35,0.044536
6866.43,0.044418
6875.54,0.044418
6884.67,0.044299
6893.82,0.043709
6903.0,0.043118
6912.2,0.042882
6921.43,0.042882
6930.69,0.042409
6939.96,0.041937
6949.27,0.04111
6958.59,0.040283
6967.95,0.040283
6977.33,0.040165
6986.73,0.039692
6996.16,0.039102
7005.61,0.038747
7015.09,0.038393
7024.6,0.038038
7034.13,0.037684
7043.69,0.037212
7053.27,0.037212
7062.88,0.03733
7072.52,0.036975
7082.18,0.036621
7091.87,0.036385
7101.58,0.035912
7111.32,0.035558
7121.09,0.035203
7130.88,0.034731
7140.71,0.034376
7150.56,0.033904
7160.43,0.033549
7170.33,0.033195
7180.27,0.032841
7190.23,0.032368
7200.21,0.032014
7210.23,0.031659
7220.27,0.031541
7230.34,0.031069
7240.44,0.03036
7250.56,0.029887
7260.72,0.029415
7270.9,0.028824
7281.12,0.028115
7291.36,0.027879
7301.63,0.027761
7311.93,0.027407
7322.25,0.027052
7332.61,0.02658
7343.0,0.026107
7353.41,0.025516
7363.86,0.02528
7374.33,0.025044
7384.83,0.024453
7395.37,0.023863
7405.93,0.023626
7416.53,0.02339
7427.15,0.023036
7437.81,0.022681
7448.5,0.022327
7459.22,0.021618
7469.96,0.021264
7480.74,0.020909
7491.55,0.020555
7502.39,0.019964
7513.27,0.019492
7524.17,0.019137
7535.11,0.018665
7546.08,0.01831
7557.08,0.017602
7568.11,0.017129
7579.17,0.016775
7590.27,0.01642
7601.4,0.016066
7612.56,0.015593
7623.76,0.015121
7634.98,0.014766
7646.24,0.014412
7657.54,0.014058
7668.87,0.013703
7680.23,0.013467
7691.62,0.013231
7703.05,0.012876
7714.51,0.012404
7726.01,0.011813
7737.54,0.011459
7749.11,0.010986
7760.71,0.010632
7772.35,0.010277
7784.02,0.009805
7795.72,0.009451
7807.46,0.009096
7819.23,0.008505
7831.04,0.008269
7842.89,0.007915
7854.77,0.007679
7866.69,0.007442
7878.65,0.00697
7890.64,0.006261
7902.67,0.005907
7914.74,0.005788
7926.84,0.005552
7938.98,0.005198
7951.16,0.004962
7963.37,0.004725
7975.62,0.004253
7987.91,0.003898
8000.24,0.00378
8012.6,0.003662
8025.01,0.003544
8037.45,0.003071
8049.93,0.002599
8062.45,0.002363
8075.01,0.002599
8087.61,0.002599
8100.24,0.002481
8112.91,0.002245
8125.63,0.002363
8138.39,0.002481
8151.18,0.002481
8164.02,0.002245
8176.9,0.002481
8189.81,0.002717
8202.77,0.002953
8215.77,0.003426
8228.82,0.00378
8241.9,0.004135
8255.02,0.004962
8268.19,0.005907
8281.39,0.006734
8294.65,0.00756
8307.94,0.009096
8321.28,0.010632
8334.66,0.012522
8348.08,0.015357
8361.54,0.01831
8375.05,0.021146
8388.6,0.024808
8402.2,0.028706
8415.84,0.032959
8429.52,0.037802
8443.25,0.042764
8457.02,0.047843
8470.84,0.053159
8484.7,0.058593
8498.61,0.064382
8512.57,0.070407
8526.57,0.076668
8540.62,0.083047
8554.71,0.089544
8568.85,0.096159
8583.04,0.102893
8597.27,0.109744
8611.55,0.117069
8625.88,0.124157
8640.26,0.131008
8654.68,0.137978
8669.16,0.145184
8683.68,0.152154
8698.25,0.159124
8712.87,0.165857
8727.53,0.172236
8742.25,0.178615
8757.02,0.184286
8771.83,0.189602
8786.7,0.194327
8801.62,0.198816
8816.59,0.20236
8831.61,0.205668
8846.68,0.208148
8861.8,0.209802
8876.97,0.210983
8892.2,0.212047
8907.48,0.212519
8922.81,0.212755
8938.2,0.212992
8953.63,0.213346
8969.13,0.213228
8984.67,0.213464
9000.27,0.214764
9015.92,0.217363
9031.63,0.220316
9047.39,0.224214
9063.21,0.229885
9079.08,0.238154
9095.01,0.248786
9111.0,0.262489
9127.04,0.278909
9143.13,0.297456
9159.28,0.317893
9175.49,0.340692
9191.76,0.364437
9208.09,0.388772
9224.47,0.413107
9240.92,0.436379
9257.42,0.457997
9273.98,0.477843
9290.6,0.494854
9307.28,0.509621
9324.02,0.522025
9340.82,0.531948
9357.68,0.538563
9374.6,0.54317
9391.58,0.546005
9408.62,0.547187
9425.73,0.545651
9442.9,0.542698
9460.13,0.537854
9477.42,0.531593
9494.78,0.52356
9512.2,0.514701
9529.69,0.504896
9547.24,0.494382
9564.86,0.483041
9582.54,0.470992
9600.28,0.458588
9618.1,0.446893
9635.97,0.434607
9653.92,0.422085
9671.93,0.410272
9690.01,0.398813
9708.16,0.387591
9726.37,0.376604
9744.65,0.365972
9763.0,0.356522
9781.43,0.346953
9799.92,0.33833
9818.48,0.33006
9837.1,0.321791
9855.8,0.313522
9874.58,0.306198
9893.42,0.298755
9912.34,0.292022
9931.33,0.285879
9950.39,0.279618
9969.52,0.272648
9988.74,0.266505
10008.0,0.260953
10027.4,0.255519
10046.8,0.250085
10066.3,0.244415
10085.9,0.238508
10105.6,0.23331
10125.3,0.228467
10145.1,0.223269
10165.0,0.217599
10185.0,0.212519
10205.0,0.207676
10225.2,0.20236
10245.4,0.197162
10265.7,0.192082
10286.0,0.187475
10306.5,0.18275
10327.0,0.177907
10347.6,0.173299
10368.3,0.16881
10389.1,0.164321
10409.9,0.160305
10430.9,0.156525
10451.9,0.152272
10473.0,0.147783
10494.2,0.144121
10515.5,0.140577
10536.9,0.136679
10558.4,0.133016
10579.9,0.129591
10601.5,0.126047
10623.3,0.122739
10645.1,0.119431
10667.0,0.116714
10689.0,0.113997
10711.1,0.111398
10733.2,0.109508
10755.5,0.107973
10777.9,0.106437
10800.3,0.105964
10822.9,0.106201
10845.5,0.106909
10868.2,0.107736
10891.1,0.108091
10914.0,0.108563
10937.0,0.109744
10960.2,0.11069
10983.4,0.111044
11006.7,0.11069
11030.1,0.109863
11053.6,0.109154
11077.3,0.107973
11101.0,0.105492
11124.8,0.103484
11148.7,0.102184
11172.7,0.100766
11196.9,0.099349
11221.1,0.097577
11245.4,0.095805
11269.9,0.094505
11294.4,0.09356
11319.1,0.092497
11343.9,0.09108
11368.8,0.08978
11393.7,0.088599
11418.8,0.087299
11444.0,0.086354
11469.4,0.085173
11494.8,0.084228
11520.3,0.083165
11546.0,0.081747
11571.8,0.080566
11597.7,0.079385
11623.7,0.078203
11649.8,0.077376
11676.0,0.076904
11702.4,0.076431
11728.9,0.075604
11755.5,0.075368
11782.2,0.075368
11809.0,0.075604
11836.0,0.075841
11863.0,0.076313
11890.3,0.076549
11917.6,0.077022
11945.0,0.077967
11972.6,0.078203
12000.4,0.078085
12028.2,0.078085
12056.2,0.077967
12084.3,0.077494
12112.5,0.07714
12140.9,0.076195
12169.4,0.075486
12198.0,0.074541
12226.8,0.073124
12255.7,0.072415
12284.7,0.07147
12313.9,0.070407
12343.2,0.069816
12372.7,0.068753
12402.3,0.067808
12432.0,0.066981
12461.9,0.065799
12491.9,0.064736
12522.1,0.063909
12552.4,0.063555
12582.9,0.062492
12613.5,0.061547
12644.3,0.060838
12675.2,0.059893
12706.3,0.059538
12737.5,0.058712
12768.9,0.057885
12800.4,0.057766
12832.1,0.057294
12863.9,0.056113
12895.9,0.055286
12928.1,0.054931
12960.4,0.054577
12992.9,0.05375
13025.5,0.053041
13058.3,0.052687
13091.3,0.051978
13124.4,0.051269
13157.8,0.051269
13191.2,0.050797
13224.9,0.049734
13258.7,0.048907
13292.7,0.047489
13326.9,0.045835
13361.2,0.04489
13395.7,0.044418
13430.4,0.043
13465.3,0.042173
13500.4,0.042291
13535.7,0.042055
13571.1,0.04111
13606.7,0.040047
13642.5,0.03981
13678.5,0.039338
13714.7,0.038393
13751.1,0.036975
13787.6,0.03603
13824.4,0.035794
13861.4,0.035321
13898.5,0.034967
13935.9,0.034495
13973.5,0.033549
14011.2,0.032841
14049.2,0.032723
14087.4,0.031659
14125.8,0.031305
14164.3,0.031659
14203.2,0.031187
14242.2,0.030951
14281.4,0.03036
14320.9,0.029415
14360.5,0.02906
14400.4,0.02906
14440.5,0.028942
14480.9,0.028942
14521.4,0.02847
14562.2,0.028234
14603.3,0.028588
14644.5,0.027643
14686.0,0.026698
14727.7,0.026107
14769.7,0.02528
14811.9,0.02528
14854.3,0.024808
14897.0,0.023981
14939.9,0.02339
14983.1,0.022799
15026.5,0.022445
15070.2,0.022799
15114.2,0.022918
15158.3,0.022799
15202.8,0.022799
15247.5,0.023272
15292.5,0.02339
15337.7,0.023272
15383.2,0.024217
15429.0,0.024335
15475.1,0.023745
15521.4,0.024571
15568.0,0.026462
15614.9,0.029297
15662.1,0.031069
15709.6,0.032132
15757.3,0.033786
15805.4,0.036739
15853.7,0.040165
15902.3,0.043354
15951.2,0.046071
16000.5,0.047962
16050.0,0.050797
16099.8,0.052569
16150.0,0.053632
16200.5,0.056467
16251.3,0.060129
16302.4,0.064027
16353.8,0.068044
16405.5,0.072415
16457.6,0.075486
16510.0,0.081038
16562.8,0.087536
16615.9,0.093797
16669.3,0.10053
16723.1,0.107736
16777.2,0.114588
16831.7,0.121912
16886.5,0.128409
16941.7,0.136442
16997.2,0.143648
17053.1,0.149909
17109.4,0.157233
17166.1,0.164203
17223.1,0.170464
17280.5,0.177907
17338.3,0.184404
17396.5,0.190665
17455.1,0.19728
17514.0,0.203423
17573.4,0.209566
17633.2,0.216418
17693.4,0.223742
17754.0,0.231066
17815.0,0.238863
17876.4,0.246305
17938.3,0.251857
18000.5,0.256701
18063.3,0.26367
18126.4,0.270168
18190.0,0.274538
18254.1,0.2795
18318.6,0.28647
18383.5,0.294148
18449.0,0.301945
18514.9,0.309742
18581.2,0.318129
18648.0,0.324981
18715.4,0.331124
18783.2,0.335376
18851.5,0.337385
18920.3,0.339747
18989.6,0.339629
19059.4,0.335613
19129.7,0.329706
19200.6,0.323445
19272.0,0.313522
19343.9,0.300173
19416.3,0.287533
19489.3,0.273357
19562.8,0.259418
19637.0,0.248077
19711.6,0.239335
19786.8,0.228467
19862.6,0.219843
19939.0,0.215473
20016.0,0.216299
20093.6,0.218662
20171.8,0.221852
20250.6,0.228467
20330.0,0.240871
20410.0,0.258354
20490.7,0.277019
20572.0,0.297456
20654.0,0.322736
20736.6,0.346008
20819.9,0.359711
20903.8,0.371879
20988.5,0.386173
21073.8,0.396923
21159.8,0.400113
21246.5,0.398222
21334.0,0.393615
21422.1,0.386527
21511.0,0.37625
21600.7,0.364319
21691.0,0.353451
21782.1,0.343409
21874.0,0.328052
21966.7,0.316121
22060.2,0.312223
22154.5,0.307025
22249.6,0.300291
22345.5,0.29403
22442.2,0.289305
22539.8,0.28647
22638.2,0.283989
22737.5,0.281036
22837.7,0.280091
22938.7,0.277019
23040.7,0.27064
23143.5,0.270286
23247.3,0.270758
23352.1,0.27194
23457.7,0.270994
23564.4,0.264143
23672.0,0.258
23780.5,0.256819
23890.1,0.253865
24000.7,0.255755
24112.3,0.253747
24225.0,0.245596
24338.7,0.238036
24453.5,0.233901
24569.4,0.234137
24686.4,0.234137
24804.5,0.222206